File: plugins/Raman/MatchingLibrary/calcium carbonate.csv
wavenumber,intensity
405.4,26.5200
414.3,17.6600
423.1,14.9000
431.9,35.1500
440.7,42.6800
449.5,59.6800
458.3,54.7200
467.1,51.1700
475.8,63.8800
484.6,67.3300
493.3,86.8400
502.0,48.1300
510.8,18.3900
519.5,24.2100
528.2,17.2500
536.9,7.2400
545.5,6.7300
554.2,30.2400
562.9,9.0100
571.5,8.7600
580.1,14.6800
588.8,8.8400
597.4,28.4500
606.0,29.4000
614.5,23.9800
623.1,18.6400
631.7,0.6500
640.2,9.5600
648.8,9.2700
657.3,15.5500
665.8,11.3300
674.3,0.0000
682.8,12.8800
691.3,11.2900
699.7,24.9900
708.2,254.6300
716.6,1844.44
725.0,91.8800
733.5,19.3000
741.9,3.8000
750.2,3.9800
758.6,9.3700
767.0,13.3900
775.3,21.9600
783.7,33.2100
792.0,23.0200
800.3,37.5800
808.6,35.1300
816.9,18.5200
825.2,34.1900
833.4,26.4000
841.7,11.0600
849.9,15.8800
858.1,12.5900
866.3,12.5400
874.5,14.0800
882.7,9.0400
890.8,9.9700
899.0,11.1100
907.1,12.4400
915.2,12.7200
923.4,13.0200
931.4,16.0300
939.5,13.6800
947.6,8.6700
955.6,12.8100
963.7,14.5700
971.7,19.2300
979.7,13.7200
987.7,0.9400
995.7,0.0000
1003.6,17.7600
1011.6,10.5300
1019.5,25.8400
1027.5,6.3400
1035.4,3.3900
1043.2,11.9900
1051.1,12.7800
1059.0,0.0000
1066.8,65.5800
1074.7,37.8400
1082.5,1295.02
1090.3,14200.5
1098.1,295.8200
1105.9,4.3600
1113.6,2.9500
1121.4,0.0000
1129.1,12.1500
1136.8,23.1400
1144.5,39.8400
1152.2,45.1900
1159.9,52.3000
1167.5,70.8000
1175.2,103.1900
1182.8,121.0000
1190.4,159.2100
1198.0,171.2900
1205.6,210.4400
1213.1,225.5900
1220.7,245.8600
1228.2,273.4900
1235.7,283.5900
1243.2,329.9500
1250.7,370.4900
1258.2,407.9800
1265.7,414.9700
1273.1,441.1800
1280.5,446.2600
1287.9,462.1900
1295.3,447.1900
1302.7,473.6500
1310.1,460.5300
1317.4,398.3400
1324.7,323.2800
1332.1,271.4000
1339.4,196.8100
1346.7,144.3800
1353.9,92.8600
1361.2,55.0500
1368.4,6.8900
1375.6,6.5700
1382.8,29.4200
1390.0,14.5600
1397.2,10.5600
1404.4,24.5800
1411.5,29.8400
1418.6,10.9100
1425.7,48.7800
1432.8,116.0500
1439.9,407.5800
1447.0,21.7900
1454.0,36.0500
1461.1,28.4200
1468.1,35.2200
1475.1,21.6200
1482.1,5.1100
1489.0,43.6800
1496.0,25.9200
1502.9,32.0700
1509.8,33.8400
1516.7,40.7600
1523.6,24.6200
1530.5,53.5500
1537.4,67.2100
1544.2,72.0900
1551.0,35.9400
1557.8,30.3900
1564.6,22.7800
1571.4,31.0800
1578.2,2.5800
1584.9,33.3300
1591.6,42.0200
1598.3,45.8800
1605.0,57.0200
1611.7,32.3300
1618.4,37.1400
1625.0,25.1600
1631.7,33.3500
1638.3,78.3300
1644.9,52.6400
1651.5,48.0400
1658.0,65.6300
1664.6,63.7800
1671.1,47.2400
1677.6,59.7700
1684.1,23.5700
1690.6,32.7600
1697.1,30.7200
1703.5,14.9500
1710.0,12.5200
1716.4,6.7900
1722.8,47.6200
1729.2,2.5700
1735.6,21.1500
1741.9,46.4400
1748.3,278.6600
1754.6,241.5000
1760.9,49.5600
1767.2,32.7400
1773.5,15.6300
1779.8,52.9800
1786.0,34.5100
1792.2,48.9700
1798.4,60.1500
1804.6,49.3700
1810.8,22.0800
1817.0,2.9700
1823.1,42.6900
1829.3,32.2500
1835.4,25.8800
1841.5,23.6700
1847.6,42.7100
1853.6,43.8700
1859.7,36.7000
1865.7,38.3900
1871.7,12.2400
1877.7,21.7900
1883.7,6.8300
1889.7,27.3100
1895.7,13.5500
1901.6,14.9600
1907.5,21.8100
1913.4,4.4300
1919.3,13.3200
1925.2,23.0200
1931.1,8.9200
1936.9,11.6900
1942.7,31.8200
1948.5,4.7600
1954.3,20.8800
1960.1,0.0000
1965.9,16.9600
1971.6,14.5300
1977.4,20.6600
1983.1,0.0000
1988.8,28.9800
1994.5,9.9800
2000.2,42.1200
2005.8,34.1100
2011.5,29.5200
2017.1,16.0600
2022.7,15.0900
2028.3,17.5300
2033.8,38.5500
2039.4,28.5700
2045.0,17.9900
2050.5,13.1300
2056.0,45.1200
2061.5,26.8900
2067.0,32.4400
2072.4,17.5800
2077.9,25.7800
2083.3,13.3900
2088.7,25.4200
2094.1,39.2100
2099.5,32.9100
2104.9,38.1900
2110.3,6.7900
2115.6,0.9300
2120.9,5.0200
2126.2,36.5000
2131.5,12.2100
2136.8,18.9900
2142.1,20.1000
2147.3,34.4100
2152.6,23.8200
2157.8,63.8100
2163.0,36.2100
2168.2,28.3300
2173.3,21.3500
2178.5,62.6800
2183.6,19.4700
2188.8,26.4400
2193.9,1.1800
2199.0,27.9700
2204.1,45.3500
2209.1,24.6200
2214.2,25.3500
2219.2,22.1800
2224.2,25.2200
2229.2,12.5700
2234.2,33.2500
2239.2,13.5400
2244.1,29.5200
2249.1,53.1600
2254.0,0.0000
2258.9,10.6100
2263.8,12.4400
2268.7,41.0800
2273.6,31.5600
2278.4,29.6700
2283.3,7.8700
2288.1,51.8900
2292.9,42.0500
2297.7,36.5500
2302.5,34.7600
2307.2,28.0300
2312.0,0.0000
2316.7,27.0200
2321.4,41.8000
2326.2,14.8700
2330.8,61.2800
2335.5,27.1400
2340.2,35.8300
2344.8,25.3500
2349.5,16.1500
2352.1,23.2700