File: plugins/Raman/MatchingLibrary/hydrogen peroxide.csv
wavenumber,intensity
405.4,450.1000
414.3,556.9500
423.1,821.6200
431.9,1044.35
440.7,1172.06
449.5,1207.98
458.3,1375.05
467.1,1319.97
475.8,1236.22
484.6,1572.58
493.3,1624.94
502.0,1149.69
510.8,568.1400
519.5,79.4600
528.2,0.0000
536.9,23.1300
545.5,18.5600
554.2,0.0000
562.9,7.2900
571.5,78.6600
580.1,40.8000
588.8,231.2500
597.4,254.9400
606.0,369.5200
614.5,308.6200
623.1,100.1400
631.7,56.0000
640.2,0.0000
648.8,27.5700
657.3,71.8700
665.8,49.2400
674.3,26.3500
682.8,53.7200
691.3,82.1000
699.7,16.3600
708.2,60.8500
716.6,56.0900
725.0,77.3800
733.5,68.1500
741.9,0.0000
750.2,43.2900
758.6,0.0000
767.0,0.0000
775.3,153.1900
783.7,276.3300
792.0,264.7000
800.3,170.1300
808.6,194.6000
816.9,20.4000
825.2,8.2000
833.4,2.6500
841.7,0.0000
849.9,0.0000
858.1,407.3700
866.3,3451.5
874.5,15293.1
882.7,13787.3
890.8,3297.64
899.0,335.7100
907.1,0.0000
915.2,0.0000
923.4,21.4500
931.4,9.1500
939.5,0.0000
947.6,33.2800
955.6,0.9700
963.7,0.0000
971.7,0.0000
979.7,0.0000
987.7,0.0000
995.7,18.9000
1003.6,42.7000
1011.6,24.0600
1019.5,20.8900
1027.5,63.1300
1035.4,71.9600
1043.2,106.7100
1051.1,150.8900
1059.0,90.1800
1066.8,107.0400
1074.7,26.3600
1082.5,89.5500
1090.3,69.1200
1098.1,7.6600
1105.9,15.4300
1113.6,25.8900
1121.4,0.0000
1129.1,6.7400
1136.8,33.8300
1144.5,0.0000
1152.2,12.5300
1159.9,34.7100
1167.5,26.4900
1175.2,61.3300
1182.8,123.3200
1190.4,73.3800
1198.0,49.6700
1205.6,75.6300
1213.1,30.9100
1220.7,74.0500
1228.2,38.8200
1235.7,98.4400
1243.2,18.5400
1250.7,72.7600
1258.2,37.6900
1265.7,83.8600
1273.1,0.0000
1280.5,0.0000
1287.9,80.0200
1295.3,41.1900
1302.7,57.5400
1310.1,81.8300
1317.4,39.9900
1324.7,64.5400
1332.1,63.0500
1339.4,55.7200
1346.7,47.2200
1353.9,45.8600
1361.2,62.2100
1368.4,49.0800
1375.6,0.0000
1382.8,32.6000
1390.0,0.8500
1397.2,7.0700
1404.4,2.5200
1411.5,7.4500
1418.6,0.0000
1425.7,43.9400
1432.8,61.0400
1439.9,133.7600
1447.0,123.1000
1454.0,111.9600
1461.1,118.1800
1468.1,182.8300
1475.1,130.2300
1482.1,92.9600
1489.0,10.4100
1496.0,70.5000
1502.9,6.1100
1509.8,7.8500
1516.7,52.9300
1523.6,0.0000
1530.5,0.0000
1537.4,0.0500
1544.2,0.0000
1551.0,19.8600
1557.8,67.5100
1564.6,27.8200
1571.4,0.0000
1578.2,0.0000
1584.9,42.5400
1591.6,176.9300
1598.3,487.7600
1605.0,726.4500
1611.7,998.7100
1618.4,1432.92
1625.0,1649.95
1631.7,1831.37
1638.3,1857.06
1644.9,1911.22
1651.5,1962.16
1658.0,1707.27
1664.6,1565.52
1671.1,1318.71
1677.6,1039.69
1684.1,810.5900
1690.6,581.7800
1697.1,289.5900
1703.5,133.5400
1710.0,98.7700
1716.4,36.4500
1722.8,53.7500
1729.2,0.0000
1735.6,0.0000
1741.9,8.5800
1748.3,40.5100
1754.6,27.9000
1760.9,23.2900
1767.2,15.0800
1773.5,11.2800
1779.8,30.3200
1786.0,41.3400
1792.2,0.0000
1798.4,38.3300
1804.6,11.5300
1810.8,34.6200
1817.0,6.9200
1823.1,53.0700
1829.3,33.1800
1835.4,44.6600
1841.5,23.4600
1847.6,10.2800
1853.6,30.1000
1859.7,23.2400
1865.7,35.2300
1871.7,47.5500
1877.7,26.9400
1883.7,32.1600
1889.7,4.0500
1895.7,31.0700
1901.6,21.0000
1907.5,56.6400
1913.4,37.1700
1919.3,0.0000
1925.2,40.2400
1931.1,26.8400
1936.9,45.4000
1942.7,48.4600
1948.5,62.1300
1954.3,91.3300
1960.1,41.1100
1965.9,25.2800
1971.6,60.8300
1977.4,1.2600
1983.1,52.0200
1988.8,43.2300
1994.5,39.9800
2000.2,52.5300
2005.8,24.0700
2011.5,32.7200
2017.1,35.7400
2022.7,53.2100
2028.3,58.4600
2033.8,8.4200
2039.4,79.2800
2045.0,63.8800
2050.5,104.4500
2056.0,33.8600
2061.5,84.2100
2067.0,65.6100
2072.4,83.7300
2077.9,97.1300
2083.3,60.3100
2088.7,54.2000
2094.1,132.3700
2099.5,140.8000
2104.9,77.6600
2110.3,51.1600
2115.6,110.6500
2120.9,104.3500
2126.2,73.7600
2131.5,142.9600
2136.8,80.5400
2142.1,61.3500
2147.3,149.1900
2152.6,146.0500
2157.8,89.7900
2163.0,190.6900
2168.2,55.9000
2173.3,65.6200
2178.5,159.3300
2183.6,150.6500
2188.8,91.6800
2193.9,118.0400
2199.0,55.5500
2204.1,83.7200
2209.1,41.6500
2214.2,97.6700
2219.2,125.7000
2224.2,93.0300
2229.2,159.0600
2234.2,72.8500
2239.2,146.5600
2244.1,23.2700
2249.1,5.6200
2254.0,18.4800
2258.9,69.7100
2263.8,36.8900
2268.7,91.7000
2273.6,94.8100
2278.4,44.9700
2283.3,116.2900
2288.1,81.5400
2292.9,108.4400
2297.7,108.6600
2302.5,49.8300
2307.2,0.1200
2312.0,86.9500
2316.7,102.0000
2321.4,43.7400
2326.2,80.8000
2330.8,356.4200
2335.5,50.3400
2340.2,65.7800
2344.8,12.6000
2349.5,69.7700
2352.1,36.6000