File: plugins/Raman/MatchingLibrary/785X/1-butanol.csv
ENLIGHTEN Version,4.1.22
Measurement ID,20250220-195505-609214-WP-01977
Serial Number,WP-01977
Model,WP-785X-F13-R-ILC
Detector,S16011-1106
Label,1-butanol
Declared Match,
Declared Score,0
Scan Averaging,2
Boxcar,0
Technique,Raman
Baseline Correction Algo,AirPLS
ROI Pixel Start,47
ROI Pixel End,2047
ROI Start Line,0
ROI Stop Line,63
CCD C4,1.38617e-12
Slit Width,25
Cropped,True
Interpolated,False
Wavenumber Correction,-0.100481
Raman Intensity Corrected,True
Deconvolved,True
Region,
High Gain Mode,False
Laser Power mW,
Electrical Dark Correction,False
Battery %,
Device ID,<DeviceID USB:0x24aa:0x1000:0:1>
FW Version,10.0.0.10
FPGA Version,035-001
BLE Version,
Prefix,enlighten
Suffix,
Preset,
Auto-Raman,True
Session Count,0
Plugin Name,
Integration Time,752
Timestamp,2025-02-20 19:55:05.609214
Note,
Temperature,0
CCD C0,793.274
CCD C1,0.153259
CCD C2,1.40788e-05
CCD C3,-1.132e-08
CCD Offset,0
CCD Gain,1.9
CCD Offset Odd,0
CCD Gain Odd,1.9
Laser Wavelength,785.032
Laser Enable,False
Laser Power %,0
Laser Temperature,0
Pixel Count,2048

Pixel,Wavelength,Wavenumber,Processed,Raw,Dark
0,793.27,132.25,NA,1054.00,1022.00
9,794.65,154.15,NA,1073.00,1030.00
18,796.04,176.01,NA,1111.00,1063.50
27,797.42,197.83,NA,1146.00,1070.00
36,798.81,219.60,NA,1129.00,1043.00
45,800.20,241.33,NA,3996.50,1054.00
54,801.59,263.02,535.53,4652.50,1087.00
63,802.98,284.66,572.98,4650.50,1088.00
72,804.38,306.26,82.91,3919.50,1061.00
81,805.77,327.82,197.87,4016.00,1043.50
90,807.17,349.32,4194.62,9227.00,1069.00
99,808.57,370.78,2211.66,6771.50,1065.50
108,809.98,392.19,7069.22,13908.50,1058.00
117,811.38,413.56,1206.16,5550.50,1077.00
126,812.79,434.87,554.58,4122.00,1048.00
135,814.19,456.14,2852.47,7105.50,1030.50
144,815.60,477.36,1433.75,5404.50,1060.00
153,817.01,498.52,1671.51,5722.50,1067.50
162,818.42,519.64,2850.01,6900.50,1073.00
171,819.84,540.70,150.84,2847.00,1019.00
180,821.25,561.71,0.00,2411.50,1020.00
189,822.67,582.67,4.19,2380.00,1034.50
198,824.09,603.57,2.61,2364.00,1026.50
207,825.50,624.43,2.52,2407.00,1072.00
216,826.92,645.22,6.79,2379.00,1033.50
225,828.34,665.97,1.59,2379.00,1011.50
234,829.77,686.66,0.00,2451.50,1073.00
243,831.19,707.29,0.00,2547.00,1072.00
252,832.61,727.87,39.66,2892.50,1058.00
261,834.04,748.39,793.72,4179.50,1040.00
270,835.47,768.85,385.36,3760.50,1018.00
279,836.89,789.26,1644.14,6027.00,1051.00
288,838.32,809.61,12368.37,21820.00,1056.00
297,839.75,829.90,22827.92,37231.00,1091.00
306,841.18,850.14,7504.65,15393.00,1060.00
315,842.61,870.31,2440.60,8949.50,1049.00
324,844.04,890.43,2443.24,9603.50,1028.50
333,845.47,910.49,1710.16,8071.50,1047.50
342,846.90,930.49,260.47,5223.00,1060.00
351,848.33,950.43,5233.57,13284.50,1054.00
360,849.77,970.31,5771.03,13851.50,1052.50
369,851.20,990.12,1864.87,7472.50,1047.50
378,852.63,1009.88,2948.59,9258.00,1083.50
387,854.07,1029.58,11056.84,20931.50,1034.00
396,855.50,1049.21,9470.63,20062.50,1051.00
405,856.94,1068.79,10425.94,22070.50,1051.00
414,858.37,1088.30,3789.47,11439.50,1020.00
423,859.81,1107.75,7619.74,17585.50,1079.00
432,861.25,1127.14,4459.79,12662.00,1060.00
441,862.68,1146.46,1512.55,7217.00,1029.00
450,864.12,1165.73,4.05,4647.00,1045.50
459,865.55,1184.93,0.00,4605.00,996.00
468,866.99,1204.06,858.36,6340.50,1041.00
477,868.43,1223.14,2252.82,8621.00,1040.00
486,869.86,1242.15,2382.83,9271.50,1041.00
495,871.30,1261.10,3157.84,10594.00,1036.00
504,872.73,1279.98,3502.69,11655.00,1037.00
513,874.17,1298.80,19594.72,34761.50,1041.50
522,875.60,1317.55,5357.95,14980.00,1051.00
531,877.04,1336.24,3273.69,11192.50,1020.00
540,878.47,1354.87,2946.94,10811.00,1041.00
549,879.91,1373.43,3245.86,11410.00,1046.50
558,881.34,1391.93,2872.60,10911.50,998.00
567,882.78,1410.36,3943.10,12672.50,1017.00
576,884.21,1428.73,10605.97,23653.00,1058.00
585,885.64,1447.03,24570.33,43585.00,1025.00
594,887.08,1465.26,17989.10,34525.50,1064.50
603,888.51,1483.43,11215.25,23655.00,1044.50
612,889.94,1501.54,3398.09,12274.00,1004.00
621,891.37,1519.58,1352.95,9164.00,990.50
630,892.80,1537.56,504.30,8004.00,1021.50
639,894.23,1555.46,24.71,7183.00,1011.50
648,895.66,1573.31,0.00,6674.50,1010.50
657,897.09,1591.09,0.00,6347.00,1012.00
666,898.52,1608.80,147.46,6303.00,1012.00
675,899.95,1626.44,77.59,6001.50,1013.00
684,901.37,1644.02,97.22,5801.50,1016.00
693,902.80,1661.54,158.67,5703.50,1061.50
702,904.22,1678.99,239.44,5497.00,987.50
711,905.64,1696.37,329.60,5441.50,1045.00
720,907.07,1713.68,208.89,5038.00,1014.00
729,908.49,1730.93,60.50,4630.00,1021.50
738,909.91,1748.12,57.38,4402.00,1025.50
747,911.33,1765.23,0.32,4110.50,1014.00
756,912.75,1782.29,0.28,3932.00,1009.50
765,914.16,1799.27,32.53,3847.50,1021.00
774,915.58,1816.19,18.41,3690.00,1002.50
783,916.99,1833.04,53.33,3616.00,1027.50
792,918.41,1849.83,70.46,3512.50,1027.50
801,919.82,1866.55,140.93,3453.50,1019.00
810,921.23,1883.20,208.22,3410.00,1022.00
819,922.64,1899.79,227.11,3292.50,1005.50
828,924.05,1916.31,186.00,3137.50,1014.00
837,925.46,1932.77,196.23,3036.00,1019.50
846,926.86,1949.16,161.28,2888.00,1024.50
855,928.27,1965.48,142.69,2722.00,1000.00
864,929.67,1981.74,100.83,2583.50,1020.50
873,931.07,1997.93,33.11,2424.00,1041.00
882,932.47,2014.06,45.61,2291.00,1004.50
891,933.87,2030.12,4.78,2153.50,1012.00
900,935.27,2046.11,0.00,2107.00,1064.50
909,936.66,2062.04,14.83,2024.50,1047.50
918,938.06,2077.91,0.00,1899.00,1013.00
927,939.45,2093.70,4.60,1843.00,1019.00
936,940.84,2109.44,0.00,1764.00,1020.00
945,942.23,2125.10,0.00,1744.00,1028.50
954,943.62,2140.70,38.57,1764.50,1026.50
963,945.00,2156.24,0.72,1714.00,1018.00
972,946.39,2171.71,51.89,1750.00,1016.00
981,947.77,2187.12,235.37,1867.50,991.50
990,949.15,2202.46,282.50,1928.50,1022.00
999,950.53,2217.73,138.38,1773.50,999.00
1008,951.90,2232.94,95.39,1714.50,998.00
1017,953.28,2248.09,104.81,1752.50,1041.50
1026,954.65,2263.17,153.26,1731.00,1004.00
1035,956.02,2278.19,158.40,1745.00,1025.00
1044,957.39,2293.14,126.49,1711.00,1024.00
1053,958.75,2308.03,33.97,1618.50,1016.00
1062,960.12,2322.85,68.09,1602.50,998.00
1071,961.48,2337.61,18.28,1572.50,1009.00
1080,962.84,2352.31,24.89,1565.50,1011.50
1089,964.20,2366.94,6.14,1558.00,1024.50
1098,965.56,2381.51,3.75,1565.50,1027.50
1107,966.91,2396.01,115.60,1658.00,1030.50
1116,968.26,2410.45,232.55,1736.50,1016.00
1125,969.61,2424.83,232.17,1741.50,1011.50
1134,970.96,2439.14,270.39,1767.00,1012.00
1143,972.30,2453.39,66.58,1654.00,1019.00
1152,973.65,2467.58,0.00,1618.50,1030.50
1161,974.99,2481.70,15.88,1659.50,1019.00
1170,976.33,2495.76,59.61,1734.00,1038.00
1179,977.66,2509.76,33.37,1746.00,1028.50
1188,979.00,2523.70,85.94,1808.00,1035.00
1197,980.33,2537.57,0.00,1737.50,1004.00
1206,981.66,2551.38,81.56,1931.50,1043.00
1215,982.98,2565.13,189.99,2047.00,1017.00
1224,984.31,2578.82,674.10,2348.50,1006.00
1233,985.63,2592.44,954.85,2538.00,1007.50
1242,986.95,2606.01,486.15,2420.50,1062.00
1251,988.27,2619.51,9.71,2249.00,1058.00
1260,989.58,2632.95,0.00,2287.00,1046.50
1269,990.89,2646.33,0.00,2421.00,1085.50
1278,992.20,2659.65,608.92,2818.50,1047.50
1287,993.51,2672.91,592.77,2992.50,1049.00
1296,994.81,2686.10,1091.55,3309.50,1047.50
1305,996.12,2699.24,1150.58,3525.50,1062.00
1314,997.41,2712.32,3510.29,4595.50,1063.50
1323,998.71,2725.33,6420.62,5881.00,1040.50
1332,1000.01,2738.29,10091.61,7021.00,1076.00
1341,1001.30,2751.18,3632.57,4936.50,1112.00
1350,1002.59,2764.02,756.90,3828.00,1078.00
1359,1003.87,2776.79,0.00,3550.50,1044.00
1368,1005.15,2789.51,0.00,3768.00,1051.50
1377,1006.43,2802.17,0.00,4369.00,1049.50
1386,1007.71,2814.77,2143.18,5540.00,1028.50
1395,1008.99,2827.30,9009.88,7516.00,1028.50
1404,1010.26,2839.78,23144.12,11535.50,1072.00
1413,1011.53,2852.21,42051.34,17510.50,1046.50
1422,1012.80,2864.57,109508.31,34415.00,1095.00
1431,1014.06,2876.87,146828.84,42377.00,1033.00
1440,1015.32,2889.12,106048.34,32686.00,1080.00
1449,1016.58,2901.31,121336.85,34618.50,1066.50
1458,1017.83,2913.44,125656.06,34306.00,1031.00
1467,1019.09,2925.51,98750.19,27932.00,1061.00
1476,1020.33,2937.53,116521.63,29010.50,1087.00
1485,1021.58,2949.49,69039.48,19403.50,1075.00
1494,1022.82,2961.39,65403.41,17010.50,1060.50
1503,1024.07,2973.23,38456.92,11424.00,1098.00
1512,1025.30,2985.02,14713.54,6235.50,1037.00
1521,1026.54,2996.75,5254.90,4167.50,1052.00
1530,1027.77,3008.43,903.30,3238.00,1059.00
1539,1029.00,3020.05,0.00,2632.50,1020.00
1548,1030.22,3031.61,0.00,2276.00,1036.00
1557,1031.45,3043.12,24.35,2104.00,1056.00
1566,1032.67,3054.57,0.00,1893.00,1034.00
1575,1033.88,3065.97,0.00,1741.00,991.00
1584,1035.10,3077.31,10.28,1735.50,1067.00
1593,1036.31,3088.60,107.30,1661.50,1045.50
1602,1037.52,3099.83,18.24,1606.50,1042.50
1611,1038.72,3111.00,164.80,1619.00,1070.00
1620,1039.92,3122.13,142.96,1587.50,1065.50
1629,1041.12,3133.20,157.39,1589.50,1078.00
1638,1042.32,3144.21,516.94,1571.00,1042.00
1647,1043.51,3155.17,783.11,1599.00,1060.50
1656,1044.70,3166.08,1321.92,1663.50,1100.00
1665,1045.88,3176.93,1626.30,1659.50,1081.00
1674,1047.07,3187.73,2179.65,1647.00,1043.50
1683,1048.24,3198.48,3000.27,1721.50,1070.00
1692,1049.42,3209.17,3659.83,1746.00,1067.50
1701,1050.59,3219.81,4352.33,1761.50,1052.00
1710,1051.76,3230.40,4618.60,1781.00,1084.50
1719,1052.93,3240.94,5299.99,1752.00,1030.00
1728,1054.10,3251.42,5587.49,1778.50,1064.50
1737,1055.26,3261.86,6078.36,1802.00,1090.00
1746,1056.41,3272.24,6174.10,1787.00,1098.00
1755,1057.57,3282.57,6063.41,1767.00,1110.00
1764,1058.72,3292.85,6507.12,1715.00,1065.50
1773,1059.87,3303.07,6076.63,1662.50,1066.50
1782,1061.01,3313.25,6088.49,1636.00,1062.00
1791,1062.15,3323.38,6645.36,1624.50,1049.00
1800,1063.29,3333.45,6647.01,1596.00,1052.00
1809,1064.42,3343.48,6419.74,1580.00,1068.50
1818,1065.55,3353.45,6377.57,1547.50,1059.00
1827,1066.68,3363.38,6521.73,1530.00,1059.00
1836,1067.81,3373.25,6510.69,1467.00,1019.50
1845,1068.93,3383.08,6428.18,1447.00,1022.00
1854,1070.05,3392.85,6318.51,1512.00,1108.50
1863,1071.16,3402.58,5487.42,1406.00,1051.00
1872,1072.27,3412.26,5103.14,1390.00,1061.00
1881,1073.38,3421.89,5142.82,1321.50,1015.00
1890,1074.49,3431.47,5054.05,1324.00,1033.00
1899,1075.59,3441.00,4294.64,1303.00,1046.50
1908,1076.69,3450.49,4165.06,1320.50,1078.50
1917,1077.78,3459.93,4673.15,1268.50,1023.50
1926,1078.87,3469.32,3677.03,1276.00,1068.00
1935,1079.96,3478.66,3677.30,1229.00,1033.00
1944,1081.05,3487.95,2688.22,1240.00,1076.00
1953,1082.13,3497.20,2617.77,1223.00,1069.00
1962,1083.21,3506.40,3395.35,1188.00,1024.00
1971,1084.28,3515.56,2522.19,1228.00,1087.50
1980,1085.36,3524.67,2130.51,1176.00,1051.50
1989,1086.42,3533.73,2117.32,1149.00,1031.00
1998,1087.49,3542.74,504.76,1149.00,1065.50
2007,1088.55,3551.71,734.93,1114.00,1030.50
2016,1089.61,3560.64,1571.56,1120.50,1026.50
2025,1090.67,3569.52,748.28,1128.00,1051.50
2034,1091.72,3578.35,485.76,1070.00,997.00
2043,1092.77,3587.14,0.00,1057.00,1003.00
2047,1093.23,3591.03,84.75,1041.00,974.50