File: plugins/Raman/MatchingLibrary/785X/2-butanol.csv
ENLIGHTEN Version,4.1.22
Measurement ID,20250220-200309-358603-WP-01977
Serial Number,WP-01977
Model,WP-785X-F13-R-ILC
Detector,S16011-1106
Label,2-butanol
Declared Match,
Declared Score,0
Scan Averaging,2
Boxcar,0
Technique,Raman
Baseline Correction Algo,AirPLS
ROI Pixel Start,47
ROI Pixel End,2047
ROI Start Line,0
ROI Stop Line,63
CCD C4,1.38617e-12
Slit Width,25
Cropped,True
Interpolated,False
Wavenumber Correction,-0.100481
Raman Intensity Corrected,True
Deconvolved,True
Region,
High Gain Mode,False
Laser Power mW,
Electrical Dark Correction,False
Battery %,
Device ID,<DeviceID USB:0x24aa:0x1000:0:1>
FW Version,10.0.0.10
FPGA Version,035-001
BLE Version,
Prefix,enlighten
Suffix,
Preset,
Auto-Raman,True
Session Count,0
Plugin Name,
Integration Time,573
Timestamp,2025-02-20 20:03:09.358603
Note,
Temperature,0
CCD C0,793.274
CCD C1,0.153259
CCD C2,1.40788e-05
CCD C3,-1.132e-08
CCD Offset,0
CCD Gain,1.9
CCD Offset Odd,0
CCD Gain Odd,1.9
Laser Wavelength,785.032
Laser Enable,False
Laser Power %,0
Laser Temperature,0
Pixel Count,2048

Pixel,Wavelength,Wavenumber,Processed,Raw,Dark
0,793.27,132.25,NA,998.00,966.00
9,794.65,154.15,NA,1011.00,985.50
18,796.04,176.01,NA,1047.50,1009.50
27,797.42,197.83,NA,1062.50,1014.00
36,798.81,219.60,NA,1053.00,997.00
45,800.20,241.33,NA,3195.50,996.00
54,801.59,263.02,902.36,4193.00,1027.50
63,802.98,284.66,826.76,3940.50,1019.00
72,804.38,306.26,38.40,2779.50,1011.50
81,805.77,327.82,0.00,2520.00,996.00
90,807.17,349.32,45.37,2630.00,1017.00
99,808.57,370.78,832.25,3881.00,1011.00
108,809.98,392.19,2200.86,5791.50,1000.50
117,811.38,413.56,1518.34,4812.00,1016.00
126,812.79,434.87,3299.78,7171.50,1008.50
135,814.19,456.14,1777.72,5261.00,978.00
144,815.60,477.36,2090.32,5756.50,1017.00
153,817.01,498.52,11433.15,18678.00,1026.00
162,818.42,519.64,1871.72,5728.00,1024.50
171,819.84,540.70,253.36,2804.50,972.50
180,821.25,561.71,0.46,2379.00,979.50
189,822.67,582.67,280.63,2798.50,988.50
198,824.09,603.57,178.41,2557.00,982.00
207,825.50,624.43,22.45,2224.50,1012.50
216,826.92,645.22,0.00,2089.50,997.00
225,828.34,665.97,0.58,2056.50,972.50
234,829.77,686.66,0.00,2126.50,1061.00
243,831.19,707.29,0.00,2186.50,1013.00
252,832.61,727.87,67.51,2463.00,1010.00
261,834.04,748.39,863.32,3991.00,994.00
270,835.47,768.85,10854.00,20603.00,992.50
279,836.89,789.26,6447.45,13888.50,1006.00
288,838.32,809.61,3336.01,10828.00,997.00
297,839.75,829.90,7303.49,18708.50,1039.00
306,841.18,850.14,244.10,3500.00,1011.50
315,842.61,870.31,376.57,3623.00,1003.00
324,844.04,890.43,342.79,3818.00,975.00
333,845.47,910.49,6747.91,13618.00,996.00
342,846.90,930.49,438.50,4140.00,1001.00
351,848.33,950.43,364.86,3968.00,992.50
360,849.77,970.31,2972.59,8584.00,992.50
369,851.20,990.12,11695.77,21711.00,1008.50
378,852.63,1009.88,2169.14,7499.50,1026.00
387,854.07,1029.58,6105.12,12885.00,1000.00
396,855.50,1049.21,622.16,4677.00,1000.00
405,856.94,1068.79,370.52,4112.50,1000.00
414,858.37,1088.30,2896.11,8330.50,976.50
423,859.81,1107.75,8144.56,16634.50,1022.00
432,861.25,1127.14,5700.32,12976.00,1016.00
441,862.68,1146.46,3051.07,8838.50,985.50
450,864.12,1165.73,2900.64,8239.50,998.50
459,865.55,1184.93,260.77,4006.00,965.00
468,866.99,1204.06,0.00,3580.00,989.50
477,868.43,1223.14,28.36,3875.00,986.00
486,869.86,1242.15,851.11,5406.00,999.00
495,871.30,1261.10,2499.96,8084.00,988.50
504,872.73,1279.98,2035.41,7675.00,1000.00
513,874.17,1298.80,4960.93,11853.00,1002.00
522,875.60,1317.55,2775.87,9090.50,986.50
531,877.04,1336.24,3345.76,10023.50,978.00
540,878.47,1354.87,5524.48,13232.50,985.00
549,879.91,1373.43,3793.52,10992.50,989.50
558,881.34,1391.93,3120.62,10032.00,963.00
567,882.78,1410.36,4839.20,12597.50,981.00
576,884.21,1428.73,6656.74,16082.00,1000.00
585,885.64,1447.03,17786.11,32325.00,984.00
594,887.08,1465.26,14974.83,28056.50,1012.00
603,888.51,1483.43,3341.95,10898.50,994.50
612,889.94,1501.54,1162.64,7401.50,968.50
621,891.37,1519.58,328.38,6208.50,956.00
630,892.80,1537.56,34.15,5710.50,969.00
639,894.23,1555.46,0.00,5358.00,968.50
648,895.66,1573.31,10.64,5130.00,967.00
657,897.09,1591.09,47.42,4968.50,965.00
666,898.52,1608.80,0.00,4700.00,974.50
675,899.95,1626.44,27.73,4582.00,964.50
684,901.37,1644.02,164.99,4606.00,982.00
693,902.80,1661.54,291.52,4655.50,1008.50
702,904.22,1678.99,388.38,4555.50,957.00
711,905.64,1696.37,571.27,4704.00,990.50
720,907.07,1713.68,1118.86,5159.50,973.50
729,908.49,1730.93,335.97,4021.50,976.00
738,909.91,1748.12,82.85,3512.50,978.00
747,911.33,1765.23,38.85,3288.50,969.50
756,912.75,1782.29,9.38,3109.00,962.00
765,914.16,1799.27,0.00,2994.00,973.50
774,915.58,1816.19,4.34,2901.50,962.00
783,916.99,1833.04,74.33,2909.00,981.00
792,918.41,1849.83,75.64,2827.00,989.50
801,919.82,1866.55,104.86,2751.50,974.50
810,921.23,1883.20,138.12,2726.50,995.00
819,922.64,1899.79,188.82,2646.00,958.00
828,924.05,1916.31,132.92,2523.50,974.50
837,925.46,1932.77,207.17,2507.50,973.00
846,926.86,1949.16,161.31,2379.00,978.00
855,928.27,1965.48,161.80,2271.00,960.00
864,929.67,1981.74,139.06,2176.00,979.00
873,931.07,1997.93,73.60,2036.50,983.50
882,932.47,2014.06,36.99,1906.00,975.50
891,933.87,2030.12,12.96,1813.50,980.00
900,935.27,2046.11,38.76,1786.00,1002.00
909,936.66,2062.04,64.37,1733.00,996.00
918,938.06,2077.91,0.27,1584.00,980.00
927,939.45,2093.70,0.13,1526.50,984.00
936,940.84,2109.44,8.39,1475.50,967.00
945,942.23,2125.10,0.29,1442.50,979.00
954,943.62,2140.70,0.00,1412.00,993.50
963,945.00,2156.24,13.78,1399.50,969.00
972,946.39,2171.71,2.66,1385.00,977.00
981,947.77,2187.12,40.20,1393.00,959.00
990,949.15,2202.46,93.60,1467.00,988.50
999,950.53,2217.73,147.81,1498.00,970.50
1008,951.90,2232.94,189.04,1513.50,957.50
1017,953.28,2248.09,115.63,1486.50,995.00
1026,954.65,2263.17,142.19,1466.50,967.50
1035,956.02,2278.19,152.83,1485.00,978.00
1044,957.39,2293.14,104.73,1437.00,984.00
1053,958.75,2308.03,23.97,1348.50,961.00
1062,960.12,2322.85,65.33,1377.00,960.00
1071,961.48,2337.61,46.57,1384.50,972.50
1080,962.84,2352.31,50.60,1401.50,979.00
1089,964.20,2366.94,122.77,1448.00,982.00
1098,965.56,2381.51,28.10,1395.50,982.00
1107,966.91,2396.01,10.70,1385.50,980.00
1116,968.26,2410.45,18.97,1386.50,970.50
1125,969.61,2424.83,33.93,1394.00,965.00
1134,970.96,2439.14,18.94,1410.00,975.00
1143,972.30,2453.39,30.78,1429.00,978.50
1152,973.65,2467.58,8.40,1437.00,981.00
1161,974.99,2481.70,39.37,1469.00,975.50
1170,976.33,2495.76,40.18,1497.50,994.50
1179,977.66,2509.76,20.25,1492.50,986.50
1188,979.00,2523.70,5.54,1499.00,988.00
1197,980.33,2537.57,0.00,1483.00,962.00
1206,981.66,2551.38,0.00,1565.00,999.00
1215,982.98,2565.13,12.12,1624.50,975.00
1224,984.31,2578.82,289.98,1846.50,974.50
1233,985.63,2592.44,645.67,2053.50,968.00
1242,986.95,2606.01,171.20,1930.50,1007.50
1251,988.27,2619.51,5.18,1899.00,998.00
1260,989.58,2632.95,73.24,1996.50,1006.50
1269,990.89,2646.33,158.03,2125.00,1030.00
1278,992.20,2659.65,262.48,2205.50,999.00
1287,993.51,2672.91,503.72,2368.00,1003.00
1296,994.81,2686.10,919.84,2600.00,996.00
1305,996.12,2699.24,1761.64,2993.50,1010.50
1314,997.41,2712.32,2392.86,3319.00,1013.00
1323,998.71,2725.33,4937.66,4253.00,988.50
1332,1000.01,2738.29,5153.72,4298.50,1013.00
1341,1001.30,2751.18,1692.05,3110.00,1049.00
1350,1002.59,2764.02,134.31,2548.50,1027.50
1359,1003.87,2776.79,0.00,2437.50,1007.50
1368,1005.15,2789.51,0.00,2646.00,1008.50
1377,1006.43,2802.17,0.00,3002.00,998.00
1386,1007.71,2814.77,8.70,3555.00,987.00
1395,1008.99,2827.30,1877.56,4427.50,986.50
1404,1010.26,2839.78,7969.84,6187.50,1015.00
1413,1011.53,2852.21,20964.63,9760.50,991.50
1422,1012.80,2864.57,44928.92,16201.00,1038.50
1431,1014.06,2876.87,79409.79,24345.00,981.00
1440,1015.32,2889.12,73040.71,22725.00,1025.00
1449,1016.58,2901.31,66743.48,20281.50,1007.50
1458,1017.83,2913.44,73421.56,21207.00,998.00
1467,1019.09,2925.51,90484.40,24322.00,1011.00
1476,1020.33,2937.53,96291.13,24504.50,1025.50
1485,1021.58,2949.49,56712.93,15877.00,1020.00
1494,1022.82,2961.39,49532.54,13345.50,1000.00
1503,1024.07,2973.23,54476.38,13611.50,1034.00
1512,1025.30,2985.02,30958.45,8765.00,991.50
1521,1026.54,2996.75,11782.54,4844.50,1009.50
1530,1027.77,3008.43,4661.06,3308.50,1009.50
1539,1029.00,3020.05,837.47,2506.50,984.00
1548,1030.22,3031.61,0.00,2108.00,991.00
1557,1031.45,3043.12,0.00,1872.50,1004.00
1566,1032.67,3054.57,7.76,1718.50,990.00
1575,1033.88,3065.97,0.00,1565.50,965.00
1584,1035.10,3077.31,25.31,1540.00,1005.00
1593,1036.31,3088.60,0.00,1470.00,1023.00
1602,1037.52,3099.83,52.31,1428.00,988.50
1611,1038.72,3111.00,85.31,1422.50,1007.50
1620,1039.92,3122.13,0.00,1396.50,1017.00
1629,1041.12,3133.20,16.67,1400.00,1025.50
1638,1042.32,3144.21,111.91,1368.00,993.00
1647,1043.51,3155.17,347.09,1395.00,1010.50
1656,1044.70,3166.08,708.72,1453.00,1043.00
1665,1045.88,3176.93,1472.98,1480.50,1017.00
1674,1047.07,3187.73,1631.66,1457.50,998.00
1683,1048.24,3198.48,1923.61,1490.50,1022.50
1692,1049.42,3209.17,2436.40,1527.00,1032.00
1701,1050.59,3219.81,2840.67,1508.50,1003.00
1710,1051.76,3230.40,3375.33,1549.50,1027.50
1719,1052.93,3240.94,3426.16,1496.50,988.00
1728,1054.10,3251.42,3749.26,1527.50,1018.00
1737,1055.26,3261.86,4187.18,1541.00,1027.50
1746,1056.41,3272.24,4331.55,1535.00,1028.50
1755,1057.57,3282.57,4529.84,1532.50,1041.00
1764,1058.72,3292.85,4741.88,1503.00,1022.00
1773,1059.87,3303.07,4948.82,1485.00,1011.50
1782,1061.01,3313.25,4463.04,1437.50,1008.50
1791,1062.15,3323.38,4727.08,1417.50,998.00
1800,1063.29,3333.45,5482.82,1427.00,989.50
1809,1064.42,3343.48,5036.94,1418.00,1018.00
1818,1065.55,3353.45,4916.06,1382.50,1008.00
1827,1066.68,3363.38,4951.85,1380.50,1020.00
1836,1067.81,3373.25,5433.57,1344.50,983.00
1845,1068.93,3383.08,5207.72,1321.50,987.50
1854,1070.05,3392.85,5445.31,1369.00,1036.00
1863,1071.16,3402.58,5623.78,1306.00,984.50
1872,1072.27,3412.26,4621.37,1284.00,1011.50
1881,1073.38,3421.89,4946.75,1242.00,971.50
1890,1074.49,3431.47,3952.36,1213.50,985.00
1899,1075.59,3441.00,4623.64,1226.50,991.00
1908,1076.69,3450.49,3354.97,1214.50,1024.00
1917,1077.78,3459.93,3348.74,1166.00,986.00
1926,1078.87,3469.32,3723.59,1198.50,1016.00
1935,1079.96,3478.66,3356.22,1156.50,992.50
1944,1081.05,3487.95,2806.88,1158.50,1015.00
1953,1082.13,3497.20,2525.99,1138.50,1010.50
1962,1083.21,3506.40,3412.08,1130.00,987.00
1971,1084.28,3515.56,1798.19,1149.00,1046.00
1980,1085.36,3524.67,1384.45,1098.50,1008.50
1989,1086.42,3533.73,2175.99,1090.00,989.50
1998,1087.49,3542.74,1159.22,1082.00,1005.00
2007,1088.55,3551.71,1889.32,1071.00,983.00
2016,1089.61,3560.64,845.72,1055.00,989.50
2025,1090.67,3569.52,1010.50,1056.00,992.00
2034,1091.72,3578.35,789.69,1011.50,953.00
2043,1092.77,3587.14,873.37,1009.50,956.00
2047,1093.23,3591.03,36.82,989.50,944.00