File: plugins/Raman/MatchingLibrary/785X/benzyl alcohol.csv
ENLIGHTEN Version,4.1.22
Measurement ID,20250220-195538-746734-WP-01977
Serial Number,WP-01977
Model,WP-785X-F13-R-ILC
Detector,S16011-1106
Label,benzyl alcohol
Declared Match,
Declared Score,0
Scan Averaging,10
Boxcar,0
Technique,Raman
Baseline Correction Algo,AirPLS
ROI Pixel Start,47
ROI Pixel End,2047
ROI Start Line,0
ROI Stop Line,63
CCD C4,1.38617e-12
Slit Width,25
Cropped,True
Interpolated,False
Wavenumber Correction,-0.100481
Raman Intensity Corrected,True
Deconvolved,True
Region,
High Gain Mode,False
Laser Power mW,
Electrical Dark Correction,False
Battery %,
Device ID,<DeviceID USB:0x24aa:0x1000:0:1>
FW Version,10.0.0.10
FPGA Version,035-001
BLE Version,
Prefix,enlighten
Suffix,
Preset,
Auto-Raman,True
Session Count,0
Plugin Name,
Integration Time,78
Timestamp,2025-02-20 19:55:38.7467
Note,
Temperature,0
CCD C0,793.274
CCD C1,0.153259
CCD C2,1.40788e-05
CCD C3,-1.132e-08
CCD Offset,0
CCD Gain,1.9
CCD Offset Odd,0
CCD Gain Odd,1.9
Laser Wavelength,785.032
Laser Enable,False
Laser Power %,0
Laser Temperature,0
Pixel Count,2048

Pixel,Wavelength,Wavenumber,Processed,Raw,Dark
0,793.27,132.25,NA,869.80,859.70
9,794.65,154.15,NA,872.60,860.40
18,796.04,176.01,NA,877.40,863.90
27,797.42,197.83,NA,876.60,866.60
36,798.81,219.60,NA,888.80,861.70
45,800.20,241.33,NA,2079.60,865.00
54,801.59,263.02,56.37,1788.40,869.40
63,802.98,284.66,0.00,1591.70,866.00
72,804.38,306.26,0.00,1474.50,865.50
81,805.77,327.82,0.00,1429.60,860.10
90,807.17,349.32,65.54,1504.20,865.60
99,808.57,370.78,156.51,1615.60,866.00
108,809.98,392.19,412.22,1966.90,863.50
117,811.38,413.56,928.38,2631.10,864.50
126,812.79,434.87,231.29,1656.50,862.40
135,814.19,456.14,283.01,1714.60,860.30
144,815.60,477.36,973.17,2719.70,863.80
153,817.01,498.52,265.16,1686.80,864.20
162,818.42,519.64,0.03,1178.00,867.20
171,819.84,540.70,0.00,1132.00,860.00
180,821.25,561.71,7.46,1155.40,861.40
189,822.67,582.67,147.35,1409.70,861.90
198,824.09,603.57,337.94,1776.50,860.70
207,825.50,624.43,2305.05,4767.70,866.60
216,826.92,645.22,71.17,1278.80,860.90
225,828.34,665.97,0.59,1163.30,858.10
234,829.77,686.66,0.00,1165.80,867.60
243,831.19,707.29,43.12,1275.00,865.50
252,832.61,727.87,90.60,1385.50,865.30
261,834.04,748.39,1185.07,3109.00,861.50
270,835.47,768.85,304.62,1815.80,860.80
279,836.89,789.26,2122.37,4976.20,863.50
288,838.32,809.61,3846.86,7897.00,865.30
297,839.75,829.90,801.63,2879.90,868.60
306,841.18,850.14,323.73,1808.80,866.90
315,842.61,870.31,38.48,1346.80,861.50
324,844.04,890.43,4.34,1306.40,860.20
333,845.47,910.49,119.57,1487.90,861.10
342,846.90,930.49,0.00,1283.50,864.90
351,848.33,950.43,31.42,1379.50,863.60
360,849.77,970.31,360.51,1939.00,861.90
369,851.20,990.12,2068.92,6140.10,865.80
378,852.63,1009.88,5216.00,15517.60,871.10
387,854.07,1029.58,7316.70,11701.50,860.70
396,855.50,1049.21,574.08,2372.80,863.00
405,856.94,1068.79,79.32,1495.80,862.30
414,858.37,1088.30,58.84,1481.50,859.20
423,859.81,1107.75,1.70,1334.40,865.00
432,861.25,1127.14,0.17,1353.10,865.30
441,862.68,1146.46,337.74,2137.10,860.70
450,864.12,1165.73,1048.09,3539.40,863.60
459,865.55,1184.93,1595.82,4308.80,858.90
468,866.99,1204.06,4120.10,8165.90,865.00
477,868.43,1223.14,859.44,3205.70,861.40
486,869.86,1242.15,237.99,1942.70,863.40
495,871.30,1261.10,16.71,1612.00,862.60
504,872.73,1279.98,113.09,1739.30,862.70
513,874.17,1298.80,97.70,1726.20,863.40
522,875.60,1317.55,75.82,1698.10,864.20
531,877.04,1336.24,123.99,1754.60,859.60
540,878.47,1354.87,198.25,1887.10,861.00
549,879.91,1373.43,409.52,2189.50,860.60
558,881.34,1391.93,273.70,1973.20,856.70
567,882.78,1410.36,189.82,1846.80,861.40
576,884.21,1428.73,171.93,1821.30,863.00
585,885.64,1447.03,562.67,2493.20,861.80
594,887.08,1465.26,1306.36,3481.80,864.00
603,888.51,1483.43,241.07,1949.60,862.20
612,889.94,1501.54,186.21,1815.00,859.30
621,891.37,1519.58,8.45,1533.50,856.80
630,892.80,1537.56,0.65,1517.30,859.20
639,894.23,1555.46,63.28,1597.80,859.50
648,895.66,1573.31,444.27,2257.00,860.40
657,897.09,1591.09,2199.93,4826.90,860.30
666,898.52,1608.80,5625.18,8342.00,861.60
675,899.95,1626.44,491.09,2159.80,861.70
684,901.37,1644.02,113.70,1581.40,861.30
693,902.80,1661.54,49.98,1472.70,864.60
702,904.22,1678.99,39.88,1435.40,859.40
711,905.64,1696.37,279.96,1695.50,862.10
720,907.07,1713.68,50.04,1375.20,862.10
729,908.49,1730.93,3.23,1258.50,862.70
738,909.91,1748.12,0.13,1211.20,859.90
747,911.33,1765.23,0.00,1177.50,860.80
756,912.75,1782.29,5.56,1173.20,857.60
765,914.16,1799.27,13.67,1169.80,860.20
774,915.58,1816.19,20.34,1160.00,856.60
783,916.99,1833.04,11.74,1139.10,860.30
792,918.41,1849.83,6.28,1120.70,861.30
801,919.82,1866.55,7.01,1108.20,861.50
810,921.23,1883.20,13.93,1103.70,861.60
819,922.64,1899.79,17.00,1089.90,858.80
828,924.05,1916.31,14.33,1079.30,860.70
837,925.46,1932.77,48.37,1102.90,861.40
846,926.86,1949.16,29.89,1069.80,859.50
855,928.27,1965.48,44.98,1070.10,858.30
864,929.67,1981.74,35.44,1050.10,859.00
873,931.07,1997.93,16.61,1024.00,864.20
882,932.47,2014.06,24.38,1014.10,859.20
891,933.87,2030.12,30.10,1007.10,859.80
900,935.27,2046.11,8.32,976.60,860.90
909,936.66,2062.04,5.14,965.50,863.30
918,938.06,2077.91,8.94,953.60,857.90
927,939.45,2093.70,0.00,937.00,861.20
936,940.84,2109.44,0.00,928.50,859.20
945,942.23,2125.10,10.20,934.40,861.10
954,943.62,2140.70,3.95,924.50,860.60
963,945.00,2156.24,0.97,918.70,859.40
972,946.39,2171.71,1.26,917.80,857.40
981,947.77,2187.12,8.54,925.40,860.50
990,949.15,2202.46,47.56,955.30,860.60
999,950.53,2217.73,3.83,919.80,858.60
1008,951.90,2232.94,14.18,924.30,856.80
1017,953.28,2248.09,3.99,921.10,863.60
1026,954.65,2263.17,13.07,919.70,857.70
1035,956.02,2278.19,5.81,915.10,859.00
1044,957.39,2293.14,0.00,910.60,859.50
1053,958.75,2308.03,16.21,926.00,859.40
1062,960.12,2322.85,16.23,927.00,858.30
1071,961.48,2337.61,0.00,913.20,859.00
1080,962.84,2352.31,10.60,925.70,859.70
1089,964.20,2366.94,8.83,929.00,862.10
1098,965.56,2381.51,6.52,929.00,861.40
1107,966.91,2396.01,18.61,940.20,860.40
1116,968.26,2410.45,50.87,965.30,861.20
1125,969.61,2424.83,65.21,975.40,859.10
1134,970.96,2439.14,72.60,983.70,861.10
1143,972.30,2453.39,65.55,978.60,862.10
1152,973.65,2467.58,25.47,955.40,860.20
1161,974.99,2481.70,30.14,957.10,858.20
1170,976.33,2495.76,10.80,951.20,861.90
1179,977.66,2509.76,0.00,946.10,862.60
1188,979.00,2523.70,9.76,955.10,863.90
1197,980.33,2537.57,0.00,947.70,859.00
1206,981.66,2551.38,25.51,965.80,861.20
1215,982.98,2565.13,44.96,979.90,860.60
1224,984.31,2578.82,97.56,1007.00,859.50
1233,985.63,2592.44,143.29,1030.10,859.40
1242,986.95,2606.01,178.45,1050.50,865.30
1251,988.27,2619.51,108.81,1019.00,864.90
1260,989.58,2632.95,39.80,980.70,860.50
1269,990.89,2646.33,14.51,976.20,867.30
1278,992.20,2659.65,23.13,975.30,862.20
1287,993.51,2672.91,7.17,972.90,862.60
1296,994.81,2686.10,0.00,970.30,863.10
1305,996.12,2699.24,35.53,994.50,864.80
1314,997.41,2712.32,110.78,1032.30,864.20
1323,998.71,2725.33,159.00,1049.10,860.80
1332,1000.01,2738.29,69.45,1024.00,866.80
1341,1001.30,2751.18,0.00,1007.30,870.70
1350,1002.59,2764.02,0.00,1010.50,866.20
1359,1003.87,2776.79,10.92,1040.70,862.10
1368,1005.15,2789.51,0.00,1064.60,865.80
1377,1006.43,2802.17,5.84,1104.00,863.50
1386,1007.71,2814.77,209.86,1177.30,861.40
1395,1008.99,2827.30,314.28,1232.10,863.20
1404,1010.26,2839.78,574.41,1324.60,864.30
1413,1011.53,2852.21,1187.80,1518.00,862.50
1422,1012.80,2864.57,2437.82,1863.70,867.60
1431,1014.06,2876.87,3125.04,2018.50,863.40
1440,1015.32,2889.12,2061.25,1756.30,867.70
1449,1016.58,2901.31,1475.19,1591.00,861.00
1458,1017.83,2913.44,1720.19,1640.90,860.60
1467,1019.09,2925.51,2204.34,1752.50,867.00
1476,1020.33,2937.53,2514.35,1806.60,869.80
1485,1021.58,2949.49,1998.48,1675.60,863.00
1494,1022.82,2961.39,1021.34,1462.50,864.20
1503,1024.07,2973.23,392.90,1353.50,869.20
1512,1025.30,2985.02,912.56,1403.50,862.50
1521,1026.54,2996.75,140.81,1298.90,861.00
1530,1027.77,3008.43,1597.83,1479.00,866.80
1539,1029.00,3020.05,1141.15,1422.80,860.30
1548,1030.22,3031.61,3933.04,1847.10,862.00
1557,1031.45,3043.12,8132.38,2505.20,864.40
1566,1032.67,3054.57,16553.64,3657.60,861.00
1575,1033.88,3065.97,17200.10,3600.90,859.20
1584,1035.10,3077.31,6497.28,2097.60,862.20
1593,1036.31,3088.60,2435.28,1426.50,865.00
1602,1037.52,3099.83,921.38,1182.80,861.30
1611,1038.72,3111.00,301.93,1083.20,866.00
1620,1039.92,3122.13,10.02,1018.70,866.50
1629,1041.12,3133.20,0.00,981.20,865.60
1638,1042.32,3144.21,25.65,965.80,862.60
1647,1043.51,3155.17,24.45,964.70,867.20
1656,1044.70,3166.08,333.68,989.40,869.50
1665,1045.88,3176.93,157.18,969.50,867.00
1674,1047.07,3187.73,56.95,949.50,864.40
1683,1048.24,3198.48,218.75,961.00,865.60
1692,1049.42,3209.17,418.76,971.40,866.40
1701,1050.59,3219.81,270.64,952.50,863.00
1710,1051.76,3230.40,153.91,944.30,868.80
1719,1052.93,3240.94,221.48,937.00,860.30
1728,1054.10,3251.42,283.20,940.70,864.90
1737,1055.26,3261.86,282.76,937.60,865.10
1746,1056.41,3272.24,302.05,936.30,867.20
1755,1057.57,3282.57,187.90,931.70,871.90
1764,1058.72,3292.85,357.01,929.30,864.70
1773,1059.87,3303.07,342.43,926.70,865.40
1782,1061.01,3313.25,399.11,925.20,864.50
1791,1062.15,3323.38,376.02,919.30,863.20
1800,1063.29,3333.45,294.36,916.30,866.10
1809,1064.42,3343.48,386.39,915.30,863.60
1818,1065.55,3353.45,438.43,910.70,860.70
1827,1066.68,3363.38,300.21,909.10,866.20
1836,1067.81,3373.25,375.48,905.20,863.00
1845,1068.93,3383.08,310.69,899.90,861.80
1854,1070.05,3392.85,443.17,909.30,869.20
1863,1071.16,3402.58,300.61,899.80,865.90
1872,1072.27,3412.26,340.21,898.90,865.10
1881,1073.38,3421.89,362.57,891.80,860.40
1890,1074.49,3431.47,323.71,891.10,862.40
1899,1075.59,3441.00,328.25,893.70,866.00
1908,1076.69,3450.49,214.54,889.00,865.80
1917,1077.78,3459.93,461.78,888.40,861.00
1926,1078.87,3469.32,332.29,889.70,866.80
1935,1079.96,3478.66,165.95,885.60,867.80
1944,1081.05,3487.95,215.91,885.00,866.90
1953,1082.13,3497.20,188.85,881.90,865.90
1962,1083.21,3506.40,225.87,878.50,862.50
1971,1084.28,3515.56,114.24,881.50,869.40
1980,1085.36,3524.67,37.52,875.60,865.20
1989,1086.42,3533.73,66.58,874.70,864.70
1998,1087.49,3542.74,348.60,879.70,864.70
2007,1088.55,3551.71,272.67,876.10,862.20
2016,1089.61,3560.64,376.87,875.20,861.70
2025,1090.67,3569.52,301.40,875.70,863.90
2034,1091.72,3578.35,222.26,871.00,861.00
2043,1092.77,3587.14,0.00,866.80,861.10
2047,1093.23,3591.03,4.81,862.90,855.40