File: plugins/Raman/MatchingLibrary/785X/caffeine.csv
ENLIGHTEN Version,4.1.22
Measurement ID,20250220-203100-186764-WP-01977
Serial Number,WP-01977
Model,WP-785X-F13-R-ILC
Detector,S16011-1106
Label,caffeine
Declared Match,
Declared Score,0
Scan Averaging,4
Boxcar,0
Technique,Raman
Baseline Correction Algo,AirPLS
ROI Pixel Start,47
ROI Pixel End,2047
ROI Start Line,0
ROI Stop Line,63
CCD C4,1.38617e-12
Slit Width,25
Cropped,True
Interpolated,False
Wavenumber Correction,-0.100481
Raman Intensity Corrected,True
Deconvolved,True
Region,
High Gain Mode,False
Laser Power mW,
Electrical Dark Correction,False
Battery %,
Device ID,<DeviceID USB:0x24aa:0x1000:0:1>
FW Version,10.0.0.10
FPGA Version,035-001
BLE Version,
Prefix,enlighten
Suffix,
Preset,
Auto-Raman,True
Session Count,0
Plugin Name,
Integration Time,300
Timestamp,2025-02-20 20:31:00.186764
Note,
Temperature,0
CCD C0,793.274
CCD C1,0.153259
CCD C2,1.40788e-05
CCD C3,-1.132e-08
CCD Offset,0
CCD Gain,1.9
CCD Offset Odd,0
CCD Gain Odd,1.9
Laser Wavelength,785.032
Laser Enable,False
Laser Power %,0
Laser Temperature,0
Pixel Count,2048

Pixel,Wavelength,Wavenumber,Processed,Raw,Dark
0,793.27,132.25,NA,967.50,909.50
9,794.65,154.15,NA,985.00,916.75
18,796.04,176.01,NA,1006.25,923.00
27,797.42,197.83,NA,1023.00,928.00
36,798.81,219.60,NA,1052.75,926.50
45,800.20,241.33,NA,5399.25,928.75
54,801.59,263.02,0.00,4843.50,938.75
63,802.98,284.66,42.27,5038.75,936.50
72,804.38,306.26,508.49,5796.00,932.25
81,805.77,327.82,161.07,5478.75,929.00
90,807.17,349.32,3.41,5397.00,929.25
99,808.57,370.78,1649.28,7724.00,938.75
108,809.98,392.19,1763.82,7866.25,927.00
117,811.38,413.56,0.00,5788.75,929.50
126,812.79,434.87,791.95,7605.50,929.75
135,814.19,456.14,516.67,7321.00,922.00
144,815.60,477.36,2042.50,9887.00,932.75
153,817.01,498.52,9.17,6429.00,931.75
162,818.42,519.64,0.00,6174.00,936.25
171,819.84,540.70,2162.89,10944.75,923.00
180,821.25,561.71,15552.55,31064.50,926.75
189,822.67,582.67,1212.67,8908.75,934.00
198,824.09,603.57,0.00,6699.25,917.00
207,825.50,624.43,0.00,6350.50,939.25
216,826.92,645.22,4816.71,12424.00,926.25
225,828.34,665.97,0.00,6003.25,916.75
234,829.77,686.66,0.00,6016.00,966.00
243,831.19,707.29,1.17,6183.00,941.50
252,832.61,727.87,342.71,7133.75,938.25
261,834.04,748.39,2099.89,10584.25,923.25
270,835.47,768.85,156.83,6731.50,916.25
279,836.89,789.26,8.78,6560.50,924.00
288,838.32,809.61,275.49,7327.00,925.50
297,839.75,829.90,0.00,6472.75,937.75
306,841.18,850.14,0.92,6587.25,937.50
315,842.61,870.31,120.98,6880.50,924.50
324,844.04,890.43,6.27,6815.00,921.25
333,845.47,910.49,8.57,6995.75,917.00
342,846.90,930.49,2059.72,10042.50,931.75
351,848.33,950.43,0.00,7189.75,932.25
360,849.77,970.31,283.75,7900.00,927.00
369,851.20,990.12,0.38,7673.00,928.75
378,852.63,1009.88,38.48,8161.00,944.50
387,854.07,1029.58,642.00,9428.25,921.50
396,855.50,1049.21,1.08,8683.50,926.50
405,856.94,1068.79,2419.05,12817.00,934.25
414,858.37,1088.30,577.06,10487.50,917.00
423,859.81,1107.75,0.00,9778.25,937.50
432,861.25,1127.14,274.48,10654.00,932.75
441,862.68,1146.46,142.30,10871.00,925.50
450,864.12,1165.73,0.00,10937.75,922.50
459,865.55,1184.93,170.38,12019.00,908.25
468,866.99,1204.06,0.00,12305.50,924.00
477,868.43,1223.14,792.92,15040.75,922.50
486,869.86,1242.15,3863.43,20684.50,926.50
495,871.30,1261.10,20.78,16213.00,925.50
504,872.73,1279.98,2638.12,21432.00,932.00
513,874.17,1298.80,34.68,18907.50,926.50
522,875.60,1317.55,2859.83,25248.25,924.25
531,877.04,1336.24,5695.74,30777.50,918.75
540,878.47,1354.87,4456.65,27842.50,923.00
549,879.91,1373.43,1665.16,24348.50,921.50
558,881.34,1391.93,2184.03,25230.50,910.25
567,882.78,1410.36,2504.97,25897.00,913.75
576,884.21,1428.73,512.86,23420.00,934.25
585,885.64,1447.03,1593.43,24511.00,915.00
594,887.08,1465.26,1914.29,24604.75,931.00
603,888.51,1483.43,1608.47,23710.25,926.00
612,889.94,1501.54,868.42,22043.25,910.75
621,891.37,1519.58,0.00,20215.50,905.50
630,892.80,1537.56,0.00,19908.00,918.50
639,894.23,1555.46,763.46,20563.50,913.25
648,895.66,1573.31,47.78,19403.50,916.50
657,897.09,1591.09,1485.67,21921.25,910.50
666,898.52,1608.80,1564.17,21757.50,917.00
675,899.95,1626.44,0.00,18135.25,914.00
684,901.37,1644.02,899.53,19517.75,921.50
693,902.80,1661.54,3224.99,22052.75,934.50
702,904.22,1678.99,108.25,17984.00,910.75
711,905.64,1696.37,9050.46,28042.75,927.00
720,907.07,1713.68,1777.23,19044.25,913.75
729,908.49,1730.93,81.56,15830.50,918.50
738,909.91,1748.12,0.00,14736.25,915.50
747,911.33,1765.23,0.00,14121.75,914.50
756,912.75,1782.29,0.10,13788.50,912.75
765,914.16,1799.27,91.27,13569.00,916.50
774,915.58,1816.19,19.00,13169.75,906.50
783,916.99,1833.04,297.54,13127.75,919.25
792,918.41,1849.83,317.70,12789.50,920.25
801,919.82,1866.55,339.46,12440.75,916.75
810,921.23,1883.20,527.41,12283.50,922.00
819,922.64,1899.79,475.90,11832.75,909.00
828,924.05,1916.31,426.25,11431.75,920.00
837,925.46,1932.77,488.09,11122.75,917.25
846,926.86,1949.16,312.10,10591.75,920.50
855,928.27,1965.48,259.69,10181.50,908.00
864,929.67,1981.74,169.00,9745.00,915.50
873,931.07,1997.93,24.52,9267.75,923.00
882,932.47,2014.06,38.28,8901.25,907.00
891,933.87,2030.12,39.20,8579.50,918.75
900,935.27,2046.11,0.00,8166.75,936.75
909,936.66,2062.04,8.52,7924.00,926.00
918,938.06,2077.91,0.50,7631.50,910.75
927,939.45,2093.70,0.00,7377.25,917.50
936,940.84,2109.44,60.95,7256.75,913.25
945,942.23,2125.10,31.55,7057.75,920.00
954,943.62,2140.70,0.00,6848.00,922.00
963,945.00,2156.24,18.26,6717.25,913.75
972,946.39,2171.71,3.38,6562.00,913.50
981,947.77,2187.12,1.92,6400.00,905.50
990,949.15,2202.46,69.68,6352.50,921.00
999,950.53,2217.73,70.38,6234.25,910.50
1008,951.90,2232.94,61.54,6110.75,908.00
1017,953.28,2248.09,143.27,6063.50,916.75
1026,954.65,2263.17,122.02,5920.50,910.00
1035,956.02,2278.19,23.07,5738.00,916.00
1044,957.39,2293.14,120.11,5701.00,920.75
1053,958.75,2308.03,62.16,5547.50,910.00
1062,960.12,2322.85,7.86,5402.00,907.50
1071,961.48,2337.61,62.58,5340.25,910.25
1080,962.84,2352.31,54.46,5232.00,915.00
1089,964.20,2366.94,16.83,5112.50,922.00
1098,965.56,2381.51,52.81,5034.25,916.25
1107,966.91,2396.01,101.49,4972.75,920.25
1116,968.26,2410.45,50.18,4840.00,916.00
1125,969.61,2424.83,41.05,4732.25,912.25
1134,970.96,2439.14,126.53,4692.00,913.25
1143,972.30,2453.39,36.40,4547.00,913.75
1152,973.65,2467.58,0.00,4429.00,918.50
1161,974.99,2481.70,102.03,4401.75,914.50
1170,976.33,2495.76,72.35,4309.00,923.00
1179,977.66,2509.76,75.85,4213.00,917.00
1188,979.00,2523.70,62.12,4136.25,926.50
1197,980.33,2537.57,148.54,4064.50,906.50
1206,981.66,2551.38,73.35,3959.75,923.75
1215,982.98,2565.13,82.08,3858.00,911.75
1224,984.31,2578.82,119.37,3793.25,912.25
1233,985.63,2592.44,44.75,3676.75,911.75
1242,986.95,2606.01,69.82,3618.25,929.25
1251,988.27,2619.51,54.42,3527.75,928.00
1260,989.58,2632.95,78.27,3455.25,927.50
1269,990.89,2646.33,3.73,3351.75,938.25
1278,992.20,2659.65,13.56,3261.50,923.00
1287,993.51,2672.91,33.90,3204.50,927.00
1296,994.81,2686.10,77.27,3157.75,925.50
1305,996.12,2699.24,0.00,3044.75,927.50
1314,997.41,2712.32,20.10,3011.00,931.25
1323,998.71,2725.33,65.42,2958.75,923.00
1332,1000.01,2738.29,3.80,2891.25,929.25
1341,1001.30,2751.18,0.00,2849.75,945.50
1350,1002.59,2764.02,50.56,2818.75,934.75
1359,1003.87,2776.79,17.62,2758.50,924.50
1368,1005.15,2789.51,164.81,2776.25,926.25
1377,1006.43,2802.17,372.88,2789.25,924.50
1386,1007.71,2814.77,240.94,2694.50,912.25
1395,1008.99,2827.30,4.29,2581.25,916.75
1404,1010.26,2839.78,0.00,2551.50,931.25
1413,1011.53,2852.21,0.00,2575.75,925.00
1422,1012.80,2864.57,0.00,2636.00,945.00
1431,1014.06,2876.87,32.32,2696.25,917.75
1440,1015.32,2889.12,107.44,2779.00,932.50
1449,1016.58,2901.31,0.00,2788.75,925.00
1458,1017.83,2913.44,0.00,2898.75,914.25
1467,1019.09,2925.51,452.29,3174.75,929.00
1476,1020.33,2937.53,3069.83,3737.50,932.75
1485,1021.58,2949.49,8642.78,4847.75,929.75
1494,1022.82,2961.39,11408.31,5240.00,925.50
1503,1024.07,2973.23,4758.42,3919.50,946.25
1512,1025.30,2985.02,496.70,2984.25,915.50
1521,1026.54,2996.75,0.00,2711.00,929.50
1530,1027.77,3008.43,236.66,2667.25,930.75
1539,1029.00,3020.05,650.73,2623.00,912.25
1548,1030.22,3031.61,705.94,2542.25,924.50
1557,1031.45,3043.12,776.18,2454.50,924.25
1566,1032.67,3054.57,163.09,2269.25,918.75
1575,1033.88,3065.97,0.00,2130.50,900.25
1584,1035.10,3077.31,0.00,2098.75,932.00
1593,1036.31,3088.60,224.89,2140.75,927.50
1602,1037.52,3099.83,1584.36,2271.25,928.00
1611,1038.72,3111.00,4374.88,2544.00,935.50
1620,1039.92,3122.13,3236.26,2362.50,936.00
1629,1041.12,3133.20,393.68,2001.75,939.75
1638,1042.32,3144.21,0.00,1867.50,922.50
1647,1043.51,3155.17,0.00,1833.75,927.50
1656,1044.70,3166.08,0.00,1824.25,942.75
1665,1045.88,3176.93,0.00,1813.75,940.50
1674,1047.07,3187.73,97.17,1838.00,923.50
1683,1048.24,3198.48,73.54,1875.00,942.50
1692,1049.42,3209.17,707.57,1916.25,937.00
1701,1050.59,3219.81,1447.78,1952.50,921.00
1710,1051.76,3230.40,1823.30,1990.00,944.00
1719,1052.93,3240.94,2822.00,2021.25,918.75
1728,1054.10,3251.42,3297.18,2055.00,936.25
1737,1055.26,3261.86,4026.29,2079.50,936.50
1746,1056.41,3272.24,3902.85,2053.75,942.75
1755,1057.57,3282.57,3947.00,2040.50,952.25
1764,1058.72,3292.85,3565.80,1970.50,932.00
1773,1059.87,3303.07,3566.45,1939.75,928.75
1782,1061.01,3313.25,2481.21,1861.25,930.75
1791,1062.15,3323.38,2155.26,1812.25,925.75
1800,1063.29,3333.45,1698.44,1766.75,927.00
1809,1064.42,3343.48,987.75,1719.25,927.75
1818,1065.55,3353.45,861.07,1676.50,929.50
1827,1066.68,3363.38,553.27,1633.25,930.25
1836,1067.81,3373.25,440.93,1579.25,919.00
1845,1068.93,3383.08,665.51,1546.00,916.00
1854,1070.05,3392.85,430.89,1531.75,946.75
1863,1071.16,3402.58,604.58,1478.50,921.75
1872,1072.27,3412.26,370.11,1446.25,932.00
1881,1073.38,3421.89,6.16,1378.75,911.50
1890,1074.49,3431.47,779.35,1380.00,922.25
1899,1075.59,3441.00,689.90,1351.25,920.25
1908,1076.69,3450.49,387.74,1328.50,937.00
1917,1077.78,3459.93,651.54,1288.75,919.50
1926,1078.87,3469.32,287.61,1271.75,933.75
1935,1079.96,3478.66,566.95,1239.25,918.25
1944,1081.05,3487.95,726.24,1227.75,927.75
1953,1082.13,3497.20,171.59,1201.25,933.00
1962,1083.21,3506.40,191.01,1177.00,926.00
1971,1084.28,3515.56,49.02,1172.00,940.25
1980,1085.36,3524.67,429.25,1147.75,925.00
1989,1086.42,3533.73,0.00,1116.50,917.50
1998,1087.49,3542.74,601.26,1124.25,928.25
2007,1088.55,3551.71,488.94,1100.50,917.75
2016,1089.61,3560.64,641.64,1091.50,919.50
2025,1090.67,3569.52,872.04,1092.00,929.00
2034,1091.72,3578.35,300.25,1047.75,902.00
2043,1092.77,3587.14,0.00,1035.75,908.50
2047,1093.23,3591.03,0.00,1017.00,897.25