File: plugins/Raman/MatchingLibrary/785X/calcium carbonate.csv
ENLIGHTEN Version,4.1.22
Measurement ID,20250220-201426-668498-WP-01977
Serial Number,WP-01977
Model,WP-785X-F13-R-ILC
Detector,S16011-1106
Label,calcium carbonate
Declared Match,
Declared Score,0
Scan Averaging,4
Boxcar,0
Technique,Raman
Baseline Correction Algo,AirPLS
ROI Pixel Start,47
ROI Pixel End,2047
ROI Start Line,0
ROI Stop Line,63
CCD C4,1.38617e-12
Slit Width,25
Cropped,True
Interpolated,False
Wavenumber Correction,-0.100481
Raman Intensity Corrected,True
Deconvolved,True
Region,
High Gain Mode,False
Laser Power mW,
Electrical Dark Correction,False
Battery %,
Device ID,<DeviceID USB:0x24aa:0x1000:0:1>
FW Version,10.0.0.10
FPGA Version,035-001
BLE Version,
Prefix,enlighten
Suffix,
Preset,
Auto-Raman,True
Session Count,0
Plugin Name,
Integration Time,299
Timestamp,2025-02-20 20:14:26.6685
Note,
Temperature,0
CCD C0,793.274
CCD C1,0.153259
CCD C2,1.40788e-05
CCD C3,-1.132e-08
CCD Offset,0
CCD Gain,1.9
CCD Offset Odd,0
CCD Gain Odd,1.9
Laser Wavelength,785.032
Laser Enable,False
Laser Power %,0
Laser Temperature,0
Pixel Count,2048

Pixel,Wavelength,Wavenumber,Processed,Raw,Dark
0,793.27,132.25,NA,944.50,911.25
9,794.65,154.15,NA,952.25,916.00
18,796.04,176.01,NA,967.25,925.00
27,797.42,197.83,NA,988.25,932.00
36,798.81,219.60,NA,1004.50,920.25
45,800.20,241.33,NA,2752.25,930.50
54,801.59,263.02,1017.36,4721.00,943.25
63,802.98,284.66,11244.99,16410.50,943.00
72,804.38,306.26,342.48,3768.50,935.75
81,805.77,327.82,0.00,3061.75,926.00
90,807.17,349.32,0.00,2952.75,928.75
99,808.57,370.78,0.99,2964.75,934.00
108,809.98,392.19,47.06,2976.25,917.00
117,811.38,413.56,67.62,2984.00,929.50
126,812.79,434.87,132.55,3029.00,919.25
135,814.19,456.14,143.94,3008.25,913.50
144,815.60,477.36,163.41,3005.75,931.25
153,817.01,498.52,116.26,2892.50,933.00
162,818.42,519.64,3.79,2671.75,938.00
171,819.84,540.70,0.00,2573.75,920.25
180,821.25,561.71,4.35,2525.25,915.00
189,822.67,582.67,0.00,2487.50,923.50
198,824.09,603.57,10.39,2468.75,915.25
207,825.50,624.43,3.65,2461.50,935.00
216,826.92,645.22,2.92,2425.75,920.50
225,828.34,665.97,0.00,2415.50,916.50
234,829.77,686.66,1.82,2513.25,987.00
243,831.19,707.29,1393.04,5225.50,937.75
252,832.61,727.87,65.14,2646.25,939.75
261,834.04,748.39,0.00,2405.25,918.25
270,835.47,768.85,4.59,2398.00,915.50
279,836.89,789.26,36.67,2443.25,925.75
288,838.32,809.61,42.13,2434.50,926.00
297,839.75,829.90,12.58,2385.75,940.50
306,841.18,850.14,0.00,2331.25,929.00
315,842.61,870.31,0.63,2330.75,928.50
324,844.04,890.43,5.44,2334.75,911.25
333,845.47,910.49,3.30,2381.00,921.75
342,846.90,930.49,0.77,2429.50,929.75
351,848.33,950.43,3.89,2472.25,918.25
360,849.77,970.31,0.00,2508.25,922.50
369,851.20,990.12,0.00,2601.75,924.75
378,852.63,1009.88,0.00,2767.25,938.25
387,854.07,1029.58,0.00,2911.50,923.50
396,855.50,1049.21,0.00,3113.50,921.25
405,856.94,1068.79,316.67,3986.50,925.00
414,858.37,1088.30,27299.10,39797.00,914.00
423,859.81,1107.75,2.17,3810.50,934.50
432,861.25,1127.14,0.00,3827.25,929.75
441,862.68,1146.46,0.00,4168.00,918.25
450,864.12,1165.73,0.20,4571.50,929.25
459,865.55,1184.93,0.00,4941.00,904.00
468,866.99,1204.06,92.61,5488.75,925.00
477,868.43,1223.14,221.50,5968.00,918.75
486,869.86,1242.15,557.87,6750.50,919.50
495,871.30,1261.10,928.43,7576.00,921.00
504,872.73,1279.98,1170.14,8222.25,929.25
513,874.17,1298.80,1430.91,8835.25,920.50
522,875.60,1317.55,1427.05,9049.50,929.00
531,877.04,1336.24,1072.23,8685.00,914.50
540,878.47,1354.87,765.75,8402.50,919.50
549,879.91,1373.43,461.90,8122.25,920.00
558,881.34,1391.93,112.94,7775.50,909.50
567,882.78,1410.36,11.16,7670.75,917.75
576,884.21,1428.73,72.31,7896.00,926.00
585,885.64,1447.03,81.13,7806.75,910.25
594,887.08,1465.26,142.91,7825.00,930.00
603,888.51,1483.43,344.94,8036.75,923.25
612,889.94,1501.54,432.04,8068.75,906.00
621,891.37,1519.58,426.66,7971.75,899.75
630,892.80,1537.56,325.27,7757.75,909.25
639,894.23,1555.46,156.30,7443.50,914.00
648,895.66,1573.31,216.74,7343.75,915.25
657,897.09,1591.09,223.16,7186.00,909.25
666,898.52,1608.80,285.00,7106.75,914.50
675,899.95,1626.44,345.17,7028.00,913.75
684,901.37,1644.02,359.06,6884.75,917.00
693,902.80,1661.54,396.34,6778.00,929.00
702,904.22,1678.99,270.55,6423.25,906.00
711,905.64,1696.37,189.43,6163.75,918.75
720,907.07,1713.68,63.82,5831.75,910.75
729,908.49,1730.93,0.54,5574.25,913.75
738,909.91,1748.12,632.42,6048.00,917.00
747,911.33,1765.23,12.61,5217.75,915.50
756,912.75,1782.29,41.73,5044.50,908.50
765,914.16,1799.27,72.96,4894.25,912.00
774,915.58,1816.19,29.22,4649.00,901.25
783,916.99,1833.04,65.20,4518.75,916.75
792,918.41,1849.83,76.48,4351.00,919.50
801,919.82,1866.55,56.57,4140.50,911.50
810,921.23,1883.20,73.69,3991.00,924.50
819,922.64,1899.79,30.50,3744.50,908.75
828,924.05,1916.31,13.39,3553.75,913.75
837,925.46,1932.77,31.34,3393.50,911.00
846,926.86,1949.16,18.56,3208.75,918.00
855,928.27,1965.48,43.52,3047.75,900.50
864,929.67,1981.74,7.99,2857.25,915.75
873,931.07,1997.93,1.73,2691.00,918.50
882,932.47,2014.06,21.69,2553.00,912.25
891,933.87,2030.12,1.74,2395.75,911.25
900,935.27,2046.11,0.00,2286.25,930.00
909,936.66,2062.04,7.34,2182.00,923.00
918,938.06,2077.91,5.27,2078.00,908.50
927,939.45,2093.70,5.00,2005.50,917.25
936,940.84,2109.44,0.00,1934.50,914.25
945,942.23,2125.10,3.51,1901.25,917.50
954,943.62,2140.70,3.90,1856.25,914.25
963,945.00,2156.24,6.49,1818.25,906.50
972,946.39,2171.71,9.51,1786.75,911.25
981,947.77,2187.12,16.75,1752.00,902.50
990,949.15,2202.46,12.63,1729.75,912.75
999,950.53,2217.73,4.48,1698.00,908.00
1008,951.90,2232.94,0.14,1671.50,907.00
1017,953.28,2248.09,9.27,1672.50,920.25
1026,954.65,2263.17,13.18,1643.00,906.00
1035,956.02,2278.19,0.00,1614.25,912.25
1044,957.39,2293.14,21.01,1628.75,920.25
1053,958.75,2308.03,15.34,1604.25,914.00
1062,960.12,2322.85,4.81,1582.75,912.75
1071,961.48,2337.61,10.81,1576.00,912.50
1080,962.84,2352.31,17.56,1567.25,914.25
1089,964.20,2366.94,42.67,1571.50,918.50
1098,965.56,2381.51,5.43,1539.00,917.25
1107,966.91,2396.01,12.62,1538.50,920.75
1116,968.26,2410.45,16.05,1520.50,911.25
1125,969.61,2424.83,26.64,1511.25,904.00
1134,970.96,2439.14,25.41,1517.00,915.50
1143,972.30,2453.39,3.11,1495.00,909.00
1152,973.65,2467.58,46.62,1519.00,912.75
1161,974.99,2481.70,56.96,1518.50,910.25
1170,976.33,2495.76,65.90,1520.25,916.25
1179,977.66,2509.76,18.07,1484.25,916.75
1188,979.00,2523.70,29.06,1481.75,921.50
1197,980.33,2537.57,30.81,1452.50,901.50
1206,981.66,2551.38,0.22,1450.25,923.25
1215,982.98,2565.13,0.00,1430.50,914.00
1224,984.31,2578.82,37.68,1437.25,908.75
1233,985.63,2592.44,8.48,1418.75,911.75
1242,986.95,2606.01,23.10,1434.25,926.50
1251,988.27,2619.51,34.28,1426.25,922.75
1260,989.58,2632.95,22.50,1421.25,926.00
1269,990.89,2646.33,0.00,1411.00,938.75
1278,992.20,2659.65,1.82,1397.75,923.50
1287,993.51,2672.91,11.85,1404.00,928.75
1296,994.81,2686.10,20.05,1399.00,923.75
1305,996.12,2699.24,17.34,1392.50,927.75
1314,997.41,2712.32,23.62,1389.75,925.25
1323,998.71,2725.33,51.59,1382.75,917.75
1332,1000.01,2738.29,38.18,1387.00,929.00
1341,1001.30,2751.18,11.68,1388.25,946.00
1350,1002.59,2764.02,30.35,1374.00,934.75
1359,1003.87,2776.79,20.44,1356.00,924.00
1368,1005.15,2789.51,19.27,1352.50,929.00
1377,1006.43,2802.17,37.30,1344.00,922.00
1386,1007.71,2814.77,54.16,1336.00,911.00
1395,1008.99,2827.30,69.86,1340.25,917.75
1404,1010.26,2839.78,56.98,1338.50,926.50
1413,1011.53,2852.21,9.06,1318.00,921.00
1422,1012.80,2864.57,76.40,1351.50,938.00
1431,1014.06,2876.87,0.00,1306.50,918.00
1440,1015.32,2889.12,98.79,1337.00,922.00
1449,1016.58,2901.31,28.38,1322.50,927.50
1458,1017.83,2913.44,11.64,1307.25,920.50
1467,1019.09,2925.51,100.03,1324.75,923.50
1476,1020.33,2937.53,44.32,1319.25,934.50
1485,1021.58,2949.49,1.48,1304.25,932.25
1494,1022.82,2961.39,32.33,1292.00,917.00
1503,1024.07,2973.23,51.94,1315.00,940.25
1512,1025.30,2985.02,16.94,1282.75,916.50
1521,1026.54,2996.75,37.11,1293.25,924.75
1530,1027.77,3008.43,94.95,1300.25,924.50
1539,1029.00,3020.05,34.02,1277.75,915.25
1548,1030.22,3031.61,39.24,1284.00,922.00
1557,1031.45,3043.12,104.19,1293.25,926.00
1566,1032.67,3054.57,35.23,1282.00,919.75
1575,1033.88,3065.97,75.22,1269.00,902.50
1584,1035.10,3077.31,32.43,1291.00,926.00
1593,1036.31,3088.60,67.54,1300.25,925.50
1602,1037.52,3099.83,61.45,1301.75,926.00
1611,1038.72,3111.00,6.59,1315.25,937.25
1620,1039.92,3122.13,33.35,1325.00,932.25
1629,1041.12,3133.20,0.00,1336.00,938.25
1638,1042.32,3144.21,0.00,1352.50,919.25
1647,1043.51,3155.17,0.00,1394.50,928.25
1656,1044.70,3166.08,21.32,1451.00,942.50
1665,1045.88,3176.93,82.79,1484.50,936.75
1674,1047.07,3187.73,88.47,1505.50,920.50
1683,1048.24,3198.48,628.60,1573.00,930.75
1692,1049.42,3209.17,1292.99,1629.75,939.00
1701,1050.59,3219.81,1902.42,1663.00,925.50
1710,1051.76,3230.40,2228.15,1687.00,942.00
1719,1052.93,3240.94,2463.53,1668.00,915.00
1728,1054.10,3251.42,2695.73,1685.00,931.25
1737,1055.26,3261.86,2462.36,1657.25,934.50
1746,1056.41,3272.24,2266.41,1627.50,938.25
1755,1057.57,3282.57,1816.43,1593.00,946.50
1764,1058.72,3292.85,1241.39,1539.75,940.75
1773,1059.87,3303.07,748.20,1482.75,923.25
1782,1061.01,3313.25,247.25,1448.00,936.50
1791,1062.15,3323.38,346.34,1413.00,922.00
1800,1063.29,3333.45,259.74,1390.50,931.25
1809,1064.42,3343.48,184.65,1362.50,931.75
1818,1065.55,3353.45,292.32,1333.00,925.00
1827,1066.68,3363.38,650.74,1323.75,928.25
1836,1067.81,3373.25,74.00,1265.75,914.25
1845,1068.93,3383.08,483.60,1262.50,917.50
1854,1070.05,3392.85,11.42,1259.50,950.25
1863,1071.16,3402.58,602.69,1237.50,924.50
1872,1072.27,3412.26,26.13,1205.75,932.00
1881,1073.38,3421.89,170.62,1179.50,917.50
1890,1074.49,3431.47,56.37,1163.00,920.75
1899,1075.59,3441.00,438.98,1162.00,922.50
1908,1076.69,3450.49,477.57,1158.25,935.50
1917,1077.78,3459.93,5.37,1122.50,924.00
1926,1078.87,3469.32,56.65,1123.25,934.75
1935,1079.96,3478.66,152.19,1101.50,920.50
1944,1081.05,3487.95,33.07,1106.25,937.25
1953,1082.13,3497.20,360.20,1095.75,929.50
1962,1083.21,3506.40,590.76,1083.50,919.50
1971,1084.28,3515.56,302.60,1095.50,945.50
1980,1085.36,3524.67,357.08,1062.50,923.00
1989,1086.42,3533.73,178.41,1047.75,920.00
1998,1087.49,3542.74,671.55,1053.50,923.50
2007,1088.55,3551.71,1234.67,1039.75,913.75
2016,1089.61,3560.64,171.07,1023.75,919.25
2025,1090.67,3569.52,1215.83,1032.25,922.00
2034,1091.72,3578.35,1103.30,1003.25,902.25
2043,1092.77,3587.14,0.00,985.25,910.50
2047,1093.23,3591.03,0.00,973.75,899.25