File: plugins/Raman/MatchingLibrary/785X/cyclohexanol.csv
ENLIGHTEN Version,4.1.22
Measurement ID,20250220-200944-384161-WP-01977
Serial Number,WP-01977
Model,WP-785X-F13-R-ILC
Detector,S16011-1106
Label,cyclohexanol
Declared Match,
Declared Score,0
Scan Averaging,6
Boxcar,0
Technique,Raman
Baseline Correction Algo,AirPLS
ROI Pixel Start,47
ROI Pixel End,2047
ROI Start Line,0
ROI Stop Line,63
CCD C4,1.38617e-12
Slit Width,25
Cropped,True
Interpolated,False
Wavenumber Correction,-0.100481
Raman Intensity Corrected,True
Deconvolved,True
Region,
High Gain Mode,False
Laser Power mW,
Electrical Dark Correction,False
Battery %,
Device ID,<DeviceID USB:0x24aa:0x1000:0:1>
FW Version,10.0.0.10
FPGA Version,035-001
BLE Version,
Prefix,enlighten
Suffix,
Preset,
Auto-Raman,True
Session Count,0
Plugin Name,
Integration Time,198
Timestamp,2025-02-20 20:09:44.3842
Note,
Temperature,0
CCD C0,793.274
CCD C1,0.153259
CCD C2,1.40788e-05
CCD C3,-1.132e-08
CCD Offset,0
CCD Gain,1.9
CCD Offset Odd,0
CCD Gain Odd,1.9
Laser Wavelength,785.032
Laser Enable,False
Laser Power %,0
Laser Temperature,0
Pixel Count,2048

Pixel,Wavelength,Wavenumber,Processed,Raw,Dark
0,793.27,132.25,NA,898.17,887.17
9,794.65,154.15,NA,905.17,889.83
18,796.04,176.01,NA,910.17,900.00
27,797.42,197.83,NA,917.17,902.67
36,798.81,219.60,NA,915.67,892.00
45,800.20,241.33,NA,1375.33,894.00
54,801.59,263.02,0.12,1329.50,906.00
63,802.98,284.66,0.00,1306.33,903.67
72,804.38,306.26,135.07,1503.33,904.67
81,805.77,327.82,234.08,1691.17,897.00
90,807.17,349.32,494.40,2038.83,898.00
99,808.57,370.78,261.57,1715.67,902.67
108,809.98,392.19,505.70,2116.00,896.17
117,811.38,413.56,1460.27,3496.17,901.17
126,812.79,434.87,398.18,1985.17,895.17
135,814.19,456.14,2901.89,5311.00,893.00
144,815.60,477.36,4030.42,6809.33,898.83
153,817.01,498.52,416.55,2067.33,902.00
162,818.42,519.64,85.65,1511.83,900.67
171,819.84,540.70,310.03,1996.50,891.50
180,821.25,561.71,5029.00,8805.00,895.67
189,822.67,582.67,181.38,1694.50,893.83
198,824.09,603.57,31.02,1428.67,890.00
207,825.50,624.43,3.53,1393.83,901.00
216,826.92,645.22,28.43,1434.33,894.17
225,828.34,665.97,201.15,1684.17,886.67
234,829.77,686.66,3.35,1406.33,920.50
243,831.19,707.29,0.00,1364.83,905.67
252,832.61,727.87,0.00,1422.00,904.17
261,834.04,748.39,117.22,1645.83,894.33
270,835.47,768.85,615.57,2614.50,889.00
279,836.89,789.26,29262.19,42152.50,897.33
288,838.32,809.61,812.77,3147.83,893.83
297,839.75,829.90,684.36,2953.83,910.50
306,841.18,850.14,3564.09,8272.50,899.17
315,842.61,870.31,36.02,1717.00,892.50
324,844.04,890.43,963.38,2956.67,891.17
333,845.47,910.49,3.05,1706.50,892.67
342,846.90,930.49,408.98,2430.50,902.33
351,848.33,950.43,2.10,1716.00,891.83
360,849.77,970.31,986.88,3227.17,893.50
369,851.20,990.12,67.69,1917.17,897.17
378,852.63,1009.88,713.18,3353.83,904.33
387,854.07,1029.58,11999.03,20475.17,898.00
396,855.50,1049.21,5805.02,10383.33,896.50
405,856.94,1068.79,3490.30,7699.00,898.50
414,858.37,1088.30,652.73,3304.00,885.17
423,859.81,1107.75,0.46,2122.83,900.17
432,861.25,1127.14,438.22,3067.67,899.50
441,862.68,1146.46,3209.43,7048.33,892.17
450,864.12,1165.73,312.07,2870.17,895.67
459,865.55,1184.93,1019.35,3830.00,886.67
468,866.99,1204.06,0.00,2298.00,894.50
477,868.43,1223.14,303.25,2848.67,894.83
486,869.86,1242.15,2331.87,6477.83,898.67
495,871.30,1261.10,7577.96,14443.33,894.83
504,872.73,1279.98,1504.82,5031.50,898.00
513,874.17,1298.80,2169.51,5840.67,896.33
522,875.60,1317.55,983.49,4154.33,895.33
531,877.04,1336.24,1590.92,5151.50,890.33
540,878.47,1354.87,2649.53,6848.50,892.67
549,879.91,1373.43,1446.76,4773.67,889.17
558,881.34,1391.93,674.06,3459.67,883.83
567,882.78,1410.36,1124.69,4172.67,891.50
576,884.21,1428.73,2957.63,7597.67,900.33
585,885.64,1447.03,10793.46,18302.50,891.50
594,887.08,1465.26,2786.16,6682.83,896.67
603,888.51,1483.43,641.92,3422.67,896.67
612,889.94,1501.54,147.34,2625.33,884.50
621,891.37,1519.58,11.60,2364.67,878.50
630,892.80,1537.56,0.27,2216.67,886.67
639,894.23,1555.46,0.00,2082.83,886.33
648,895.66,1573.31,64.23,2122.83,891.33
657,897.09,1591.09,1.80,1996.50,885.33
666,898.52,1608.80,12.30,1974.33,888.00
675,899.95,1626.44,44.60,1967.17,888.50
684,901.37,1644.02,45.28,1935.67,888.67
693,902.80,1661.54,75.23,1947.50,901.00
702,904.22,1678.99,111.54,1940.50,885.00
711,905.64,1696.37,84.62,1879.17,893.67
720,907.07,1713.68,53.71,1786.83,886.00
729,908.49,1730.93,36.17,1724.50,889.67
738,909.91,1748.12,11.06,1652.50,885.67
747,911.33,1765.23,0.00,1595.50,886.00
756,912.75,1782.29,30.23,1606.17,881.17
765,914.16,1799.27,26.01,1587.17,890.67
774,915.58,1816.19,48.55,1566.33,885.33
783,916.99,1833.04,25.57,1516.67,891.33
792,918.41,1849.83,21.16,1488.33,893.00
801,919.82,1866.55,20.19,1457.83,890.17
810,921.23,1883.20,36.63,1450.00,893.17
819,922.64,1899.79,49.01,1422.50,881.50
828,924.05,1916.31,66.18,1423.17,888.50
837,925.46,1932.77,121.44,1457.17,893.33
846,926.86,1949.16,55.76,1357.67,889.00
855,928.27,1965.48,15.28,1288.00,889.67
864,929.67,1981.74,20.38,1267.00,890.83
873,931.07,1997.93,27.67,1258.67,895.83
882,932.47,2014.06,39.36,1231.83,883.50
891,933.87,2030.12,17.85,1191.00,889.67
900,935.27,2046.11,33.72,1192.50,903.00
909,936.66,2062.04,0.71,1132.67,895.17
918,938.06,2077.91,0.00,1099.00,888.67
927,939.45,2093.70,0.00,1100.00,892.00
936,940.84,2109.44,12.71,1112.17,886.00
945,942.23,2125.10,72.57,1161.00,889.17
954,943.62,2140.70,39.90,1134.67,893.00
963,945.00,2156.24,0.30,1087.67,884.00
972,946.39,2171.71,36.66,1118.67,884.67
981,947.77,2187.12,27.13,1104.67,880.50
990,949.15,2202.46,1.96,1089.50,889.00
999,950.53,2217.73,109.24,1184.67,885.00
1008,951.90,2232.94,160.32,1217.83,882.33
1017,953.28,2248.09,82.13,1163.50,895.83
1026,954.65,2263.17,19.97,1098.67,888.67
1035,956.02,2278.19,1.13,1081.83,890.67
1044,957.39,2293.14,0.29,1082.00,892.67
1053,958.75,2308.03,2.79,1078.67,886.33
1062,960.12,2322.85,36.21,1104.67,882.33
1071,961.48,2337.61,150.83,1189.33,892.00
1080,962.84,2352.31,32.80,1108.50,886.33
1089,964.20,2366.94,86.21,1147.83,891.00
1098,965.56,2381.51,27.23,1113.67,892.17
1107,966.91,2396.01,2.21,1090.67,892.50
1116,968.26,2410.45,42.62,1124.00,892.50
1125,969.61,2424.83,108.80,1152.83,884.33
1134,970.96,2439.14,50.41,1119.83,888.00
1143,972.30,2453.39,0.00,1085.00,889.17
1152,973.65,2467.58,35.95,1118.33,889.67
1161,974.99,2481.70,19.33,1122.00,886.17
1170,976.33,2495.76,10.93,1135.00,889.67
1179,977.66,2509.76,116.90,1198.83,888.83
1188,979.00,2523.70,82.00,1194.67,892.33
1197,980.33,2537.57,0.00,1151.67,889.17
1206,981.66,2551.38,15.45,1183.83,894.83
1215,982.98,2565.13,24.40,1199.33,886.67
1224,984.31,2578.82,234.63,1324.83,890.00
1233,985.63,2592.44,422.41,1428.67,886.33
1242,986.95,2606.01,542.35,1495.83,893.67
1251,988.27,2619.51,408.74,1448.00,899.67
1260,989.58,2632.95,404.30,1462.00,898.83
1269,990.89,2646.33,1178.71,1850.83,904.33
1278,992.20,2659.65,3004.50,2537.17,895.17
1287,993.51,2672.91,2201.12,2225.17,896.67
1296,994.81,2686.10,1631.86,1973.17,898.17
1305,996.12,2699.24,944.99,1697.17,898.83
1314,997.41,2712.32,798.48,1613.83,896.33
1323,998.71,2725.33,579.97,1506.83,893.17
1332,1000.01,2738.29,58.96,1335.33,905.33
1341,1001.30,2751.18,0.00,1305.00,912.83
1350,1002.59,2764.02,0.00,1325.83,906.33
1359,1003.87,2776.79,0.00,1419.33,897.50
1368,1005.15,2789.51,0.00,1577.83,897.83
1377,1006.43,2802.17,1.19,1829.17,898.00
1386,1007.71,2814.77,1070.56,2270.50,892.67
1395,1008.99,2827.30,3946.67,3179.33,895.33
1404,1010.26,2839.78,12102.32,5919.33,903.17
1413,1011.53,2852.21,56222.68,16991.17,899.33
1422,1012.80,2864.57,36301.08,12563.50,908.33
1431,1014.06,2876.87,23294.38,8291.83,898.00
1440,1015.32,2889.12,24652.91,8356.00,906.00
1449,1016.58,2901.31,27801.64,8797.67,902.67
1458,1017.83,2913.44,30105.19,9434.50,896.33
1467,1019.09,2925.51,50546.17,13502.00,899.33
1476,1020.33,2937.53,57603.67,14749.67,907.67
1485,1021.58,2949.49,39346.17,10453.00,901.17
1494,1022.82,2961.39,15009.00,5033.33,901.50
1503,1024.07,2973.23,6077.73,2978.00,907.83
1512,1025.30,2985.02,2068.31,2074.17,891.83
1521,1026.54,2996.75,100.57,1645.67,901.50
1530,1027.77,3008.43,0.00,1414.50,899.50
1539,1029.00,3020.05,0.00,1263.50,888.83
1548,1030.22,3031.61,0.00,1168.17,892.00
1557,1031.45,3043.12,0.00,1114.33,901.67
1566,1032.67,3054.57,0.00,1065.17,895.83
1575,1033.88,3065.97,0.00,1032.83,880.83
1584,1035.10,3077.31,0.69,1034.83,898.67
1593,1036.31,3088.60,0.00,1021.00,900.67
1602,1037.52,3099.83,42.23,1013.17,892.67
1611,1038.72,3111.00,37.86,1016.50,901.67
1620,1039.92,3122.13,63.36,1013.83,897.67
1629,1041.12,3133.20,74.11,1023.33,905.33
1638,1042.32,3144.21,33.24,1012.00,897.33
1647,1043.51,3155.17,137.96,1024.50,899.50
1656,1044.70,3166.08,245.53,1038.33,908.67
1665,1045.88,3176.93,308.78,1039.83,908.67
1674,1047.07,3187.73,379.01,1029.33,895.67
1683,1048.24,3198.48,573.27,1050.33,905.33
1692,1049.42,3209.17,752.31,1057.33,904.33
1701,1050.59,3219.81,888.61,1058.67,898.00
1710,1051.76,3230.40,1141.54,1076.83,904.83
1719,1052.93,3240.94,1255.30,1065.67,890.00
1728,1054.10,3251.42,1490.71,1079.33,896.17
1737,1055.26,3261.86,1491.38,1082.50,904.67
1746,1056.41,3272.24,1582.96,1083.00,908.00
1755,1057.57,3282.57,1514.20,1080.33,915.50
1764,1058.72,3292.85,1752.89,1067.83,897.83
1773,1059.87,3303.07,1702.02,1063.83,903.17
1782,1061.01,3313.25,1526.49,1048.17,903.83
1791,1062.15,3323.38,1591.13,1042.67,901.00
1800,1063.29,3333.45,1690.25,1036.83,896.67
1809,1064.42,3343.48,1691.54,1035.50,903.00
1818,1065.55,3353.45,1750.96,1031.00,899.83
1827,1066.68,3363.38,1987.07,1031.50,899.17
1836,1067.81,3373.25,1784.21,1008.67,889.00
1845,1068.93,3383.08,1838.95,1005.67,889.17
1854,1070.05,3392.85,1717.08,1017.50,910.83
1863,1071.16,3402.58,1843.24,1001.83,897.33
1872,1072.27,3412.26,1479.12,988.67,899.17
1881,1073.38,3421.89,1302.16,967.50,887.33
1890,1074.49,3431.47,1316.24,968.50,892.17
1899,1075.59,3441.00,1414.86,969.67,895.67
1908,1076.69,3450.49,1099.87,970.00,906.83
1917,1077.78,3459.93,991.59,952.33,895.00
1926,1078.87,3469.32,874.21,954.83,901.83
1935,1079.96,3478.66,1015.03,947.33,894.00
1944,1081.05,3487.95,842.60,947.33,901.50
1953,1082.13,3497.20,704.21,943.83,902.67
1962,1083.21,3506.40,417.23,932.67,899.17
1971,1084.28,3515.56,463.13,940.50,908.33
1980,1085.36,3524.67,460.59,929.83,899.33
1989,1086.42,3533.73,341.44,918.00,890.67
1998,1087.49,3542.74,206.02,922.17,898.67
2007,1088.55,3551.71,109.99,912.50,891.83
2016,1089.61,3560.64,232.69,913.33,891.00
2025,1090.67,3569.52,175.15,914.00,893.00
2034,1091.72,3578.35,274.80,901.00,881.67
2043,1092.77,3587.14,136.09,900.33,883.00
2047,1093.23,3591.03,184.60,897.33,876.50