File: plugins/Raman/MatchingLibrary/785X/DMSO.csv
ENLIGHTEN Version,4.1.22
Measurement ID,20250220-200023-341747-WP-01977
Serial Number,WP-01977
Model,WP-785X-F13-R-ILC
Detector,S16011-1106
Label,DMSO
Declared Match,
Declared Score,0
Scan Averaging,10
Boxcar,0
Technique,Raman
Baseline Correction Algo,AirPLS
ROI Pixel Start,47
ROI Pixel End,2047
ROI Start Line,0
ROI Stop Line,63
CCD C4,1.38617e-12
Slit Width,25
Cropped,True
Interpolated,False
Wavenumber Correction,-0.100481
Raman Intensity Corrected,True
Deconvolved,True
Region,
High Gain Mode,False
Laser Power mW,
Electrical Dark Correction,False
Battery %,
Device ID,<DeviceID USB:0x24aa:0x1000:0:1>
FW Version,10.0.0.10
FPGA Version,035-001
BLE Version,
Prefix,enlighten
Suffix,
Preset,
Auto-Raman,True
Session Count,0
Plugin Name,
Integration Time,78
Timestamp,2025-02-20 20:00:23.3417
Note,
Temperature,0
CCD C0,793.274
CCD C1,0.153259
CCD C2,1.40788e-05
CCD C3,-1.132e-08
CCD Offset,0
CCD Gain,1.9
CCD Offset Odd,0
CCD Gain Odd,1.9
Laser Wavelength,785.032
Laser Enable,False
Laser Power %,0
Laser Temperature,0
Pixel Count,2048

Pixel,Wavelength,Wavenumber,Processed,Raw,Dark
0,793.27,132.25,NA,885.60,861.10
9,794.65,154.15,NA,891.70,860.60
18,796.04,176.01,NA,894.00,863.10
27,797.42,197.83,NA,898.10,866.30
36,798.81,219.60,NA,903.90,863.30
45,800.20,241.33,NA,1559.70,861.50
54,801.59,263.02,182.47,1831.70,867.10
63,802.98,284.66,679.67,2515.10,867.90
72,804.38,306.26,4962.57,7767.90,867.60
81,805.77,327.82,5233.49,8870.10,865.60
90,807.17,349.32,1732.05,4187.30,864.80
99,808.57,370.78,938.88,2916.40,866.00
108,809.98,392.19,1441.63,3626.20,863.90
117,811.38,413.56,102.08,1475.30,865.60
126,812.79,434.87,1.94,1274.60,865.20
135,814.19,456.14,0.00,1187.40,861.30
144,815.60,477.36,0.00,1148.70,865.60
153,817.01,498.52,0.00,1119.60,864.80
162,818.42,519.64,0.00,1095.90,865.70
171,819.84,540.70,0.00,1093.20,860.90
180,821.25,561.71,0.00,1120.60,861.10
189,822.67,582.67,0.00,1238.20,861.90
198,824.09,603.57,66.13,1473.80,863.50
207,825.50,624.43,337.64,1923.10,863.50
216,826.92,645.22,1729.16,4328.80,863.60
225,828.34,665.97,24584.46,39199.30,862.70
234,829.77,686.66,4335.12,10122.70,873.30
243,831.19,707.29,5592.41,11073.10,866.80
252,832.61,727.87,661.72,2503.20,865.80
261,834.04,748.39,163.83,1623.70,860.10
270,835.47,768.85,13.50,1328.10,861.60
279,836.89,789.26,0.00,1155.50,863.00
288,838.32,809.61,0.00,1072.00,864.20
297,839.75,829.90,0.00,1033.00,869.00
306,841.18,850.14,0.00,1021.40,862.00
315,842.61,870.31,0.47,1048.20,863.80
324,844.04,890.43,95.50,1218.40,862.10
333,845.47,910.49,115.79,1279.30,864.20
342,846.90,930.49,388.63,1717.00,861.90
351,848.33,950.43,1192.14,3031.70,865.80
360,849.77,970.31,303.59,1675.90,863.60
369,851.20,990.12,199.07,1447.60,865.20
378,852.63,1009.88,619.39,2236.40,867.90
387,854.07,1029.58,2722.88,5795.30,862.50
396,855.50,1049.21,4149.66,8108.70,862.60
405,856.94,1068.79,1398.09,3585.70,865.20
414,858.37,1088.30,195.55,1474.20,858.30
423,859.81,1107.75,61.66,1250.50,864.20
432,861.25,1127.14,2.03,1151.90,864.90
441,862.68,1146.46,0.00,1117.60,862.80
450,864.12,1165.73,0.00,1098.60,862.80
459,865.55,1184.93,0.00,1100.20,856.80
468,866.99,1204.06,2.07,1127.70,861.40
477,868.43,1223.14,0.00,1151.00,859.80
486,869.86,1242.15,1.64,1207.40,862.40
495,871.30,1261.10,23.24,1277.30,859.10
504,872.73,1279.98,94.15,1420.10,861.60
513,874.17,1298.80,249.00,1717.60,862.80
522,875.60,1317.55,378.77,1927.70,863.70
531,877.04,1336.24,221.97,1682.10,861.30
540,878.47,1354.87,221.17,1699.20,860.00
549,879.91,1373.43,288.92,1829.00,861.40
558,881.34,1391.93,596.30,2350.90,857.50
567,882.78,1410.36,2805.58,5893.20,861.80
576,884.21,1428.73,3439.26,6777.70,862.60
585,885.64,1447.03,1083.31,3104.40,861.00
594,887.08,1465.26,239.25,1836.40,865.00
603,888.51,1483.43,91.84,1619.90,864.90
612,889.94,1501.54,25.93,1516.50,855.70
621,891.37,1519.58,7.92,1455.80,855.30
630,892.80,1537.56,6.09,1414.40,857.40
639,894.23,1555.46,0.00,1370.70,858.10
648,895.66,1573.31,0.00,1359.30,860.50
657,897.09,1591.09,20.23,1371.10,857.10
666,898.52,1608.80,46.32,1392.90,860.30
675,899.95,1626.44,75.30,1411.80,859.40
684,901.37,1644.02,73.57,1394.30,860.30
693,902.80,1661.54,73.84,1383.50,866.00
702,904.22,1678.99,73.76,1357.20,859.60
711,905.64,1696.37,56.71,1322.40,863.60
720,907.07,1713.68,39.37,1279.40,858.80
729,908.49,1730.93,22.15,1239.00,859.00
738,909.91,1748.12,13.23,1212.60,860.20
747,911.33,1765.23,5.98,1186.90,859.90
756,912.75,1782.29,5.05,1170.70,858.80
765,914.16,1799.27,10.52,1161.60,859.70
774,915.58,1816.19,3.50,1140.50,859.90
783,916.99,1833.04,17.12,1144.10,861.10
792,918.41,1849.83,9.05,1122.90,861.90
801,919.82,1866.55,17.50,1118.10,860.50
810,921.23,1883.20,25.59,1113.50,860.50
819,922.64,1899.79,23.79,1099.40,860.90
828,924.05,1916.31,24.13,1085.10,860.90
837,925.46,1932.77,31.34,1079.70,860.40
846,926.86,1949.16,33.81,1069.50,859.60
855,928.27,1965.48,34.75,1056.10,856.70
864,929.67,1981.74,31.42,1041.10,860.40
873,931.07,1997.93,29.74,1027.90,860.00
882,932.47,2014.06,14.53,1000.90,859.70
891,933.87,2030.12,6.92,984.20,862.40
900,935.27,2046.11,3.27,969.40,863.60
909,936.66,2062.04,0.00,956.30,864.60
918,938.06,2077.91,3.06,946.40,859.70
927,939.45,2093.70,5.20,940.30,859.50
936,940.84,2109.44,3.53,930.30,859.50
945,942.23,2125.10,3.61,924.10,860.80
954,943.62,2140.70,0.00,912.70,862.80
963,945.00,2156.24,6.83,911.40,856.40
972,946.39,2171.71,3.71,910.40,858.90
981,947.77,2187.12,15.52,919.60,858.50
990,949.15,2202.46,8.48,917.20,861.50
999,950.53,2217.73,16.32,921.00,860.60
1008,951.90,2232.94,23.26,922.90,858.40
1017,953.28,2248.09,10.43,914.80,862.00
1026,954.65,2263.17,20.26,919.70,860.20
1035,956.02,2278.19,13.71,915.80,861.70
1044,957.39,2293.14,26.95,924.60,861.10
1053,958.75,2308.03,50.31,940.80,860.60
1062,960.12,2322.85,51.08,937.80,859.00
1071,961.48,2337.61,51.86,936.60,858.20
1080,962.84,2352.31,39.09,927.80,860.40
1089,964.20,2366.94,23.71,916.40,861.90
1098,965.56,2381.51,17.82,911.40,862.40
1107,966.91,2396.01,23.66,911.10,859.70
1116,968.26,2410.45,12.28,902.40,860.10
1125,969.61,2424.83,15.28,902.70,859.60
1134,970.96,2439.14,21.36,905.00,859.80
1143,972.30,2453.39,21.06,904.30,860.60
1152,973.65,2467.58,22.13,901.10,857.80
1161,974.99,2481.70,7.24,895.80,861.90
1170,976.33,2495.76,9.06,893.10,859.60
1179,977.66,2509.76,6.45,892.00,859.60
1188,979.00,2523.70,0.00,888.10,861.80
1197,980.33,2537.57,0.00,888.40,860.20
1206,981.66,2551.38,19.50,906.40,863.40
1215,982.98,2565.13,87.30,941.50,860.60
1224,984.31,2578.82,175.73,984.70,859.20
1233,985.63,2592.44,115.60,956.80,859.50
1242,986.95,2606.01,103.19,953.70,863.30
1251,988.27,2619.51,131.55,967.50,863.80
1260,989.58,2632.95,107.56,951.50,860.70
1269,990.89,2646.33,55.52,934.00,867.60
1278,992.20,2659.65,21.28,913.70,862.20
1287,993.51,2672.91,14.31,911.50,862.90
1296,994.81,2686.10,0.00,908.60,864.70
1305,996.12,2699.24,1.78,913.80,865.50
1314,997.41,2712.32,5.34,918.80,865.00
1323,998.71,2725.33,8.27,919.80,860.90
1332,1000.01,2738.29,0.00,928.10,865.70
1341,1001.30,2751.18,0.00,937.70,865.70
1350,1002.59,2764.02,0.00,951.40,864.70
1359,1003.87,2776.79,0.00,971.40,865.80
1368,1005.15,2789.51,0.91,1056.80,863.20
1377,1006.43,2802.17,521.56,1287.80,862.40
1386,1007.71,2814.77,545.37,1371.00,859.70
1395,1008.99,2827.30,332.78,1370.00,863.70
1404,1010.26,2839.78,49.27,1352.80,863.70
1413,1011.53,2852.21,1.01,1392.90,863.80
1422,1012.80,2864.57,599.99,1583.60,868.60
1431,1014.06,2876.87,1766.67,1879.40,862.50
1440,1015.32,2889.12,2900.92,2200.20,865.20
1449,1016.58,2901.31,8240.53,3973.60,864.00
1458,1017.83,2913.44,47678.00,11243.00,861.70
1467,1019.09,2925.51,8694.44,3860.30,864.00
1476,1020.33,2937.53,1951.59,1880.90,867.20
1485,1021.58,2949.49,227.87,1461.20,865.40
1494,1022.82,2961.39,56.79,1383.40,865.50
1503,1024.07,2973.23,1125.07,1566.90,867.50
1512,1025.30,2985.02,5715.84,2462.50,862.20
1521,1026.54,2996.75,13592.73,3649.00,865.00
1530,1027.77,3008.43,6972.09,2503.70,865.80
1539,1029.00,3020.05,2333.83,1571.90,860.70
1548,1030.22,3031.61,829.49,1253.00,865.10
1557,1031.45,3043.12,230.76,1110.30,864.10
1566,1032.67,3054.57,17.03,1039.20,863.40
1575,1033.88,3065.97,11.75,988.90,855.30
1584,1035.10,3077.31,0.00,961.80,867.10
1593,1036.31,3088.60,52.70,949.50,864.20
1602,1037.52,3099.83,0.00,925.50,865.00
1611,1038.72,3111.00,30.66,921.60,864.40
1620,1039.92,3122.13,0.00,912.10,866.30
1629,1041.12,3133.20,26.10,909.70,865.80
1638,1042.32,3144.21,41.07,904.00,861.40
1647,1043.51,3155.17,0.00,903.30,867.00
1656,1044.70,3166.08,46.12,908.90,869.80
1665,1045.88,3176.93,81.60,909.70,867.40
1674,1047.07,3187.73,158.86,909.00,862.20
1683,1048.24,3198.48,307.44,921.40,864.60
1692,1049.42,3209.17,280.97,920.70,868.00
1701,1050.59,3219.81,310.95,916.50,863.40
1710,1051.76,3230.40,358.10,921.00,866.80
1719,1052.93,3240.94,358.36,914.60,863.40
1728,1054.10,3251.42,375.65,916.00,865.90
1737,1055.26,3261.86,386.71,916.60,868.20
1746,1056.41,3272.24,413.61,917.20,868.80
1755,1057.57,3282.57,386.65,912.20,868.50
1764,1058.72,3292.85,348.46,907.20,866.80
1773,1059.87,3303.07,366.13,904.70,866.00
1782,1061.01,3313.25,382.26,901.30,864.30
1791,1062.15,3323.38,380.92,898.10,861.50
1800,1063.29,3333.45,375.57,894.50,861.20
1809,1064.42,3343.48,273.85,894.00,866.80
1818,1065.55,3353.45,337.49,891.50,862.80
1827,1066.68,3363.38,329.80,891.10,864.60
1836,1067.81,3373.25,371.82,888.00,861.20
1845,1068.93,3383.08,387.34,887.40,860.40
1854,1070.05,3392.85,303.37,893.20,871.70
1863,1071.16,3402.58,472.40,890.30,864.30
1872,1072.27,3412.26,278.46,884.00,864.70
1881,1073.38,3421.89,284.73,879.00,860.30
1890,1074.49,3431.47,305.06,880.70,863.10
1899,1075.59,3441.00,256.05,878.30,862.70
1908,1076.69,3450.49,271.79,882.60,867.80
1917,1077.78,3459.93,194.23,874.30,861.90
1926,1078.87,3469.32,407.13,881.70,864.70
1935,1079.96,3478.66,132.78,875.90,866.60
1944,1081.05,3487.95,294.52,878.00,865.60
1953,1082.13,3497.20,249.37,877.70,866.40
1962,1083.21,3506.40,379.68,874.10,861.70
1971,1084.28,3515.56,67.34,876.70,870.60
1980,1085.36,3524.67,214.07,874.00,864.90
1989,1086.42,3533.73,99.73,869.40,863.20
1998,1087.49,3542.74,251.00,873.80,865.20
2007,1088.55,3551.71,274.92,869.50,861.50
2016,1089.61,3560.64,292.79,870.80,861.00
2025,1090.67,3569.52,154.29,866.20,861.30
2034,1091.72,3578.35,287.97,868.10,860.00
2043,1092.77,3587.14,426.79,866.10,857.60
2047,1093.23,3591.03,25.94,861.70,856.20