File: plugins/Raman/MatchingLibrary/785X/ethanol.csv
ENLIGHTEN Version,4.1.22
Measurement ID,20250220-200131-687668-WP-01977
Serial Number,WP-01977
Model,WP-785X-F13-R-ILC
Detector,S16011-1106
Label,ethanol
Declared Match,
Declared Score,0
Scan Averaging,3
Boxcar,0
Technique,Raman
Baseline Correction Algo,AirPLS
ROI Pixel Start,47
ROI Pixel End,2047
ROI Start Line,0
ROI Stop Line,63
CCD C4,1.38617e-12
Slit Width,25
Cropped,True
Interpolated,False
Wavenumber Correction,-0.100481
Raman Intensity Corrected,True
Deconvolved,True
Region,
High Gain Mode,False
Laser Power mW,
Electrical Dark Correction,False
Battery %,
Device ID,<DeviceID USB:0x24aa:0x1000:0:1>
FW Version,10.0.0.10
FPGA Version,035-001
BLE Version,
Prefix,enlighten
Suffix,
Preset,
Auto-Raman,True
Session Count,0
Plugin Name,
Integration Time,386
Timestamp,2025-02-20 20:01:31.6877
Note,
Temperature,0
CCD C0,793.274
CCD C1,0.153259
CCD C2,1.40788e-05
CCD C3,-1.132e-08
CCD Offset,0
CCD Gain,1.9
CCD Offset Odd,0
CCD Gain Odd,1.9
Laser Wavelength,785.032
Laser Enable,False
Laser Power %,0
Laser Temperature,0
Pixel Count,2048

Pixel,Wavelength,Wavenumber,Processed,Raw,Dark
0,793.27,132.25,NA,943.00,926.00
9,794.65,154.15,NA,953.33,946.33
18,796.04,176.01,NA,965.33,953.67
27,797.42,197.83,NA,975.33,970.00
36,798.81,219.60,NA,969.33,943.00
45,800.20,241.33,NA,2049.33,943.00
54,801.59,263.02,185.01,2211.00,970.00
63,802.98,284.66,144.57,2101.00,964.67
72,804.38,306.26,14.93,1878.33,960.00
81,805.77,327.82,0.00,1772.00,949.00
90,807.17,349.32,0.00,1774.33,947.67
99,808.57,370.78,71.49,1874.00,958.00
108,809.98,392.19,223.08,2072.67,946.33
117,811.38,413.56,773.27,2924.33,952.00
126,812.79,434.87,2874.84,5820.00,954.00
135,814.19,456.14,1124.96,3399.67,935.33
144,815.60,477.36,347.85,2219.33,947.67
153,817.01,498.52,149.61,1880.00,953.00
162,818.42,519.64,36.62,1690.33,956.67
171,819.84,540.70,4.32,1586.67,936.33
180,821.25,561.71,0.00,1544.00,933.67
189,822.67,582.67,0.00,1540.33,941.67
198,824.09,603.57,0.45,1545.67,937.33
207,825.50,624.43,10.87,1579.00,952.67
216,826.92,645.22,21.06,1580.33,940.33
225,828.34,665.97,14.44,1572.00,936.00
234,829.77,686.66,13.15,1620.67,985.67
243,831.19,707.29,4.59,1588.33,961.33
252,832.61,727.87,1.31,1584.67,957.33
261,834.04,748.39,1.83,1599.67,943.00
270,835.47,768.85,0.00,1635.33,938.00
279,836.89,789.26,17.22,1785.67,945.00
288,838.32,809.61,191.10,2108.67,945.67
297,839.75,829.90,206.26,2209.33,964.00
306,841.18,850.14,671.87,3068.00,957.00
315,842.61,870.31,4658.59,11455.67,954.00
324,844.04,890.43,14659.69,27751.00,946.67
333,845.47,910.49,1081.05,3922.33,952.67
342,846.90,930.49,228.27,2390.33,953.00
351,848.33,950.43,7.84,2027.00,945.67
360,849.77,970.31,0.00,1977.67,940.00
369,851.20,990.12,72.10,2185.33,945.00
378,852.63,1009.88,393.82,2820.33,964.67
387,854.07,1029.58,1541.15,4902.67,939.67
396,855.50,1049.21,7701.03,14606.67,948.33
405,856.94,1068.79,3451.94,8415.67,939.33
414,858.37,1088.30,5970.41,12502.67,937.67
423,859.81,1107.75,4081.53,9663.67,959.00
432,861.25,1127.14,1899.32,5564.33,952.67
441,862.68,1146.46,555.91,3341.33,938.33
450,864.12,1165.73,118.78,2636.33,947.33
459,865.55,1184.93,0.00,2366.00,919.67
468,866.99,1204.06,0.00,2465.67,947.00
477,868.43,1223.14,1.69,2763.00,936.67
486,869.86,1242.15,271.14,3527.33,947.67
495,871.30,1261.10,1181.00,5439.33,948.67
504,872.73,1279.98,3507.59,9084.67,949.67
513,874.17,1298.80,692.93,5113.33,946.00
522,875.60,1317.55,299.91,4710.67,949.67
531,877.04,1336.24,144.38,4715.00,930.67
540,878.47,1354.87,205.04,4979.67,933.33
549,879.91,1373.43,709.47,5713.33,941.67
558,881.34,1391.93,1218.15,6417.00,923.33
567,882.78,1410.36,2007.78,7562.33,936.67
576,884.21,1428.73,3461.13,9829.00,949.33
585,885.64,1447.03,9367.70,18629.00,930.00
594,887.08,1465.26,6688.97,14960.33,960.33
603,888.51,1483.43,4766.73,11154.67,952.00
612,889.94,1501.54,1877.16,6935.00,922.00
621,891.37,1519.58,930.06,5355.67,913.67
630,892.80,1537.56,424.39,4535.00,929.33
639,894.23,1555.46,93.14,3975.00,931.33
648,895.66,1573.31,0.00,3621.33,929.67
657,897.09,1591.09,0.00,3373.00,925.33
666,898.52,1608.80,67.18,3377.33,928.67
675,899.95,1626.44,81.28,3278.67,928.00
684,901.37,1644.02,1.24,3068.67,936.33
693,902.80,1661.54,24.62,3011.67,955.00
702,904.22,1678.99,58.42,2911.00,924.00
711,905.64,1696.37,75.05,2857.00,951.33
720,907.07,1713.68,81.69,2733.33,926.67
729,908.49,1730.93,56.69,2599.33,931.67
738,909.91,1748.12,22.18,2456.00,933.33
747,911.33,1765.23,12.77,2339.67,929.67
756,912.75,1782.29,0.49,2231.00,920.67
765,914.16,1799.27,12.83,2182.67,927.67
774,915.58,1816.19,0.00,2090.33,921.33
783,916.99,1833.04,19.84,2071.00,933.67
792,918.41,1849.83,52.80,2058.67,935.67
801,919.82,1866.55,59.03,2005.67,929.67
810,921.23,1883.20,107.83,2011.67,940.00
819,922.64,1899.79,123.35,1939.00,914.67
828,924.05,1916.31,111.46,1878.33,926.67
837,925.46,1932.77,104.67,1830.00,935.67
846,926.86,1949.16,105.75,1774.00,938.00
855,928.27,1965.48,106.10,1710.00,920.00
864,929.67,1981.74,72.80,1635.33,935.00
873,931.07,1997.93,31.96,1544.67,941.00
882,932.47,2014.06,19.93,1468.00,928.00
891,933.87,2030.12,11.62,1417.00,937.67
900,935.27,2046.11,0.00,1370.67,952.00
909,936.66,2062.04,2.74,1344.67,948.33
918,938.06,2077.91,29.34,1331.00,933.67
927,939.45,2093.70,47.67,1323.00,933.00
936,940.84,2109.44,17.90,1270.33,927.33
945,942.23,2125.10,0.00,1235.33,943.00
954,943.62,2140.70,0.00,1212.67,936.67
963,945.00,2156.24,12.34,1195.67,922.00
972,946.39,2171.71,20.70,1201.33,929.00
981,947.77,2187.12,10.98,1177.00,922.67
990,949.15,2202.46,5.16,1173.33,932.33
999,950.53,2217.73,7.34,1165.00,925.33
1008,951.90,2232.94,60.77,1207.67,926.67
1017,953.28,2248.09,107.93,1260.67,943.67
1026,954.65,2263.17,123.09,1251.00,926.67
1035,956.02,2278.19,170.97,1285.00,935.67
1044,957.39,2293.14,129.26,1249.33,936.00
1053,958.75,2308.03,60.26,1177.00,922.00
1062,960.12,2322.85,55.05,1179.00,933.67
1071,961.48,2337.61,38.51,1162.67,932.00
1080,962.84,2352.31,25.62,1147.33,931.00
1089,964.20,2366.94,14.67,1141.00,940.33
1098,965.56,2381.51,0.00,1120.33,937.33
1107,966.91,2396.01,9.00,1126.67,930.00
1116,968.26,2410.45,2.64,1133.67,932.00
1125,969.61,2424.83,8.60,1140.33,926.00
1134,970.96,2439.14,23.50,1167.00,929.67
1143,972.30,2453.39,43.08,1187.33,926.67
1152,973.65,2467.58,74.93,1225.33,931.67
1161,974.99,2481.70,14.99,1205.33,934.00
1170,976.33,2495.76,26.69,1219.00,932.33
1179,977.66,2509.76,27.09,1231.33,934.67
1188,979.00,2523.70,76.79,1291.33,943.00
1197,980.33,2537.57,257.23,1387.67,926.67
1206,981.66,2551.38,273.09,1429.67,952.67
1215,982.98,2565.13,118.72,1338.67,929.67
1224,984.31,2578.82,77.06,1325.33,931.00
1233,985.63,2592.44,100.58,1348.00,933.00
1242,986.95,2606.01,42.87,1349.67,949.67
1251,988.27,2619.51,0.00,1334.67,954.67
1260,989.58,2632.95,0.18,1345.67,945.00
1269,990.89,2646.33,0.00,1392.33,966.00
1278,992.20,2659.65,0.00,1410.67,947.67
1287,993.51,2672.91,0.84,1504.33,942.33
1296,994.81,2686.10,290.43,1733.00,947.00
1305,996.12,2699.24,1426.94,2294.33,948.33
1314,997.41,2712.32,2986.00,2959.33,955.00
1323,998.71,2725.33,2584.45,2855.33,945.00
1332,1000.01,2738.29,1602.62,2560.67,954.00
1341,1001.30,2751.18,1716.15,2620.00,977.00
1350,1002.59,2764.02,574.15,2270.00,959.33
1359,1003.87,2776.79,0.00,2091.33,951.67
1368,1005.15,2789.51,0.00,2156.67,957.67
1377,1006.43,2802.17,0.00,2428.33,947.67
1386,1007.71,2814.77,691.87,2934.00,933.00
1395,1008.99,2827.30,3546.55,3733.67,941.33
1404,1010.26,2839.78,6658.91,4616.33,953.00
1413,1011.53,2852.21,11405.95,5934.67,946.67
1422,1012.80,2864.57,23697.83,9374.00,974.67
1431,1014.06,2876.87,43626.51,13936.67,943.67
1440,1015.32,2889.12,38335.74,12499.00,960.33
1449,1016.58,2901.31,31042.36,10357.67,950.00
1458,1017.83,2913.44,35307.70,11344.67,949.00
1467,1019.09,2925.51,69903.61,17980.33,955.67
1476,1020.33,2937.53,48947.85,13593.00,969.33
1485,1021.58,2949.49,25032.50,7900.33,959.33
1494,1022.82,2961.39,23582.92,7294.33,952.67
1503,1024.07,2973.23,32159.17,8423.67,972.33
1512,1025.30,2985.02,17438.50,5570.33,939.67
1521,1026.54,2996.75,6902.80,3378.00,957.33
1530,1027.77,3008.43,2701.32,2477.33,953.33
1539,1029.00,3020.05,474.53,2013.67,936.00
1548,1030.22,3031.61,0.00,1750.67,942.00
1557,1031.45,3043.12,0.00,1605.00,950.00
1566,1032.67,3054.57,0.00,1481.00,940.33
1575,1033.88,3065.97,30.89,1381.67,918.33
1584,1035.10,3077.31,0.00,1334.33,951.00
1593,1036.31,3088.60,0.00,1286.00,954.00
1602,1037.52,3099.83,0.00,1245.67,945.67
1611,1038.72,3111.00,93.17,1247.33,957.67
1620,1039.92,3122.13,0.00,1222.67,960.00
1629,1041.12,3133.20,119.72,1237.33,962.00
1638,1042.32,3144.21,213.15,1217.33,945.00
1647,1043.51,3155.17,362.24,1234.67,956.33
1656,1044.70,3166.08,561.08,1269.67,981.00
1665,1045.88,3176.93,937.89,1272.67,961.33
1674,1047.07,3187.73,1338.97,1281.67,947.00
1683,1048.24,3198.48,1638.85,1319.00,967.67
1692,1049.42,3209.17,2076.10,1332.67,959.33
1701,1050.59,3219.81,2593.21,1348.67,949.00
1710,1051.76,3230.40,2837.25,1369.67,967.67
1719,1052.93,3240.94,3142.90,1351.00,942.67
1728,1054.10,3251.42,3466.23,1374.00,960.33
1737,1055.26,3261.86,3612.03,1374.00,964.00
1746,1056.41,3272.24,3785.97,1368.00,968.00
1755,1057.57,3282.57,3707.35,1360.67,985.33
1764,1058.72,3292.85,3724.06,1327.33,964.33
1773,1059.87,3303.07,3834.68,1305.00,954.33
1782,1061.01,3313.25,4377.08,1313.67,953.00
1791,1062.15,3323.38,4060.19,1281.00,948.67
1800,1063.29,3333.45,3995.28,1262.67,951.00
1809,1064.42,3343.48,4072.18,1262.33,958.67
1818,1065.55,3353.45,4039.55,1243.67,954.00
1827,1066.68,3363.38,3938.70,1229.00,959.33
1836,1067.81,3373.25,3959.74,1193.00,934.67
1845,1068.93,3383.08,4028.93,1191.33,941.67
1854,1070.05,3392.85,3722.53,1207.00,981.00
1863,1071.16,3402.58,4008.78,1169.00,941.33
1872,1072.27,3412.26,3592.00,1156.33,952.33
1881,1073.38,3421.89,3560.97,1118.33,930.00
1890,1074.49,3431.47,3239.20,1112.00,940.33
1899,1075.59,3441.00,2819.29,1098.00,945.00
1908,1076.69,3450.49,2878.17,1110.00,963.67
1917,1077.78,3459.93,3102.01,1075.33,931.67
1926,1078.87,3469.32,2648.30,1084.33,957.67
1935,1079.96,3478.66,2308.56,1064.00,950.67
1944,1081.05,3487.95,1700.88,1052.33,958.33
1953,1082.13,3497.20,2037.44,1050.67,957.33
1962,1083.21,3506.40,1728.33,1021.67,938.00
1971,1084.28,3515.56,1647.18,1050.33,971.67
1980,1085.36,3524.67,1121.82,1019.67,954.00
1989,1086.42,3533.73,1120.94,1001.33,941.67
1998,1087.49,3542.74,1515.86,1007.00,941.00
2007,1088.55,3551.71,614.60,983.67,936.00
2016,1089.61,3560.64,774.47,984.00,936.67
2025,1090.67,3569.52,572.08,985.67,942.33
2034,1091.72,3578.35,320.04,956.67,919.00
2043,1092.77,3587.14,0.00,953.00,925.00
2047,1093.23,3591.03,42.91,946.33,913.33