File: plugins/Raman/MatchingLibrary/785X/glycine.csv
ENLIGHTEN Version,4.1.22
Measurement ID,20250220-202910-748359-WP-01977
Serial Number,WP-01977
Model,WP-785X-F13-R-ILC
Detector,S16011-1106
Label,glycine
Declared Match,
Declared Score,0
Scan Averaging,3
Boxcar,0
Technique,Raman
Baseline Correction Algo,AirPLS
ROI Pixel Start,47
ROI Pixel End,2047
ROI Start Line,0
ROI Stop Line,63
CCD C4,1.38617e-12
Slit Width,25
Cropped,True
Interpolated,False
Wavenumber Correction,-0.100481
Raman Intensity Corrected,True
Deconvolved,True
Region,
High Gain Mode,False
Laser Power mW,
Electrical Dark Correction,False
Battery %,
Device ID,<DeviceID USB:0x24aa:0x1000:0:1>
FW Version,10.0.0.10
FPGA Version,035-001
BLE Version,
Prefix,enlighten
Suffix,
Preset,
Auto-Raman,True
Session Count,0
Plugin Name,
Integration Time,428
Timestamp,2025-02-20 20:29:10.7484
Note,
Temperature,0
CCD C0,793.274
CCD C1,0.153259
CCD C2,1.40788e-05
CCD C3,-1.132e-08
CCD Offset,0
CCD Gain,1.9
CCD Offset Odd,0
CCD Gain Odd,1.9
Laser Wavelength,785.032
Laser Enable,False
Laser Power %,0
Laser Temperature,0
Pixel Count,2048

Pixel,Wavelength,Wavenumber,Processed,Raw,Dark
0,793.27,132.25,NA,973.33,940.33
9,794.65,154.15,NA,990.33,947.00
18,796.04,176.01,NA,1010.67,967.33
27,797.42,197.83,NA,1023.00,974.67
36,798.81,219.60,NA,1030.33,951.67
45,800.20,241.33,NA,3330.67,960.00
54,801.59,263.02,7.65,3462.00,983.67
63,802.98,284.66,0.00,3438.67,977.33
72,804.38,306.26,0.87,3486.33,971.00
81,805.77,327.82,148.66,3717.33,959.67
90,807.17,349.32,1640.94,5941.00,970.00
99,808.57,370.78,1095.87,5297.33,981.00
108,809.98,392.19,31.02,3621.67,958.00
117,811.38,413.56,0.00,3530.33,971.67
126,812.79,434.87,0.88,3588.33,963.33
135,814.19,456.14,119.04,3732.67,945.00
144,815.60,477.36,1213.34,5617.33,971.67
153,817.01,498.52,5053.42,11151.33,973.67
162,818.42,519.64,834.08,4903.33,977.00
171,819.84,540.70,23.07,3320.00,947.67
180,821.25,561.71,0.00,3144.00,943.33
189,822.67,582.67,159.30,3483.67,954.33
198,824.09,603.57,3407.36,7824.00,949.67
207,825.50,624.43,68.50,3287.33,968.00
216,826.92,645.22,0.00,3115.67,947.67
225,828.34,665.97,115.01,3314.33,948.67
234,829.77,686.66,1147.82,5296.67,1001.33
243,831.19,707.29,984.76,5077.67,982.33
252,832.61,727.87,8.76,3129.33,970.33
261,834.04,748.39,2.65,3064.33,958.33
270,835.47,768.85,0.00,3031.33,942.67
279,836.89,789.26,17.43,3106.67,954.67
288,838.32,809.61,0.00,3115.33,951.67
297,839.75,829.90,0.00,3172.33,978.00
306,841.18,850.14,0.00,3254.33,966.67
315,842.61,870.31,320.35,3900.67,961.33
324,844.04,890.43,18620.33,30331.67,956.67
333,845.47,910.49,599.12,4516.33,958.00
342,846.90,930.49,135.42,3515.00,961.33
351,848.33,950.43,0.00,3094.67,958.33
360,849.77,970.31,0.00,3110.33,960.00
369,851.20,990.12,0.00,3183.33,958.67
378,852.63,1009.88,61.30,3457.67,986.67
387,854.07,1029.58,2805.44,8462.67,955.00
396,855.50,1049.21,458.69,4528.33,965.33
405,856.94,1068.79,8.12,3618.00,961.67
414,858.37,1088.30,206.05,3958.33,939.33
423,859.81,1107.75,2101.75,6742.67,973.33
432,861.25,1127.14,710.70,5112.67,971.33
441,862.68,1146.46,1450.60,6340.67,949.67
450,864.12,1165.73,4.30,3615.00,952.33
459,865.55,1184.93,0.00,3550.33,926.33
468,866.99,1204.06,0.09,3722.33,954.00
477,868.43,1223.14,0.00,3878.67,956.33
486,869.86,1242.15,0.00,4155.67,957.33
495,871.30,1261.10,0.00,4461.33,950.67
504,872.73,1279.98,254.31,5404.67,952.67
513,874.17,1298.80,1596.63,7988.00,953.00
522,875.60,1317.55,11113.01,25457.67,964.00
531,877.04,1336.24,1924.28,10700.00,943.00
540,878.47,1354.87,0.97,5717.00,954.33
549,879.91,1373.43,189.95,6148.00,952.67
558,881.34,1391.93,2722.45,10056.00,932.33
567,882.78,1410.36,9181.96,18736.67,942.00
576,884.21,1428.73,910.10,7860.33,964.67
585,885.64,1447.03,1376.85,9060.00,941.67
594,887.08,1465.26,228.06,6687.67,972.67
603,888.51,1483.43,5.89,5690.00,954.33
612,889.94,1501.54,1312.72,7451.33,940.67
621,891.37,1519.58,1285.17,7360.33,928.00
630,892.80,1537.56,47.29,5594.33,944.33
639,894.23,1555.46,456.44,6254.67,943.33
648,895.66,1573.31,2798.30,9266.33,946.33
657,897.09,1591.09,142.64,5368.00,936.67
666,898.52,1608.80,42.83,5128.33,942.33
675,899.95,1626.44,623.53,5719.33,942.00
684,901.37,1644.02,555.82,5500.00,940.00
693,902.80,1661.54,1211.44,6409.33,966.00
702,904.22,1678.99,858.25,5751.67,931.00
711,905.64,1696.37,8.36,4247.33,956.00
720,907.07,1713.68,38.36,4073.67,941.67
729,908.49,1730.93,0.00,3844.00,944.33
738,909.91,1748.12,27.38,3732.33,944.67
747,911.33,1765.23,2.02,3580.00,942.33
756,912.75,1782.29,67.81,3550.67,932.00
765,914.16,1799.27,98.24,3531.33,946.33
774,915.58,1816.19,61.75,3411.67,937.33
783,916.99,1833.04,111.06,3408.33,950.33
792,918.41,1849.83,56.57,3261.67,952.67
801,919.82,1866.55,44.82,3167.33,942.33
810,921.23,1883.20,64.64,3118.67,952.67
819,922.64,1899.79,36.70,3001.67,931.33
828,924.05,1916.31,85.56,2982.67,936.00
837,925.46,1932.77,87.93,2915.00,938.33
846,926.86,1949.16,43.96,2809.33,948.33
855,928.27,1965.48,19.67,2701.33,936.33
864,929.67,1981.74,0.00,2610.33,943.67
873,931.07,1997.93,0.00,2569.00,951.67
882,932.47,2014.06,60.28,2577.67,937.33
891,933.87,2030.12,48.10,2526.33,941.00
900,935.27,2046.11,30.72,2505.67,975.00
909,936.66,2062.04,25.86,2447.33,961.33
918,938.06,2077.91,0.00,2350.00,938.00
927,939.45,2093.70,42.33,2377.00,951.33
936,940.84,2109.44,193.29,2473.00,941.67
945,942.23,2125.10,249.06,2491.00,949.33
954,943.62,2140.70,237.68,2437.67,950.33
963,945.00,2156.24,206.44,2346.00,933.33
972,946.39,2171.71,90.37,2217.33,952.67
981,947.77,2187.12,0.00,2081.33,939.33
990,949.15,2202.46,38.03,2084.00,945.67
999,950.53,2217.73,25.61,2026.33,931.00
1008,951.90,2232.94,0.00,1977.00,935.33
1017,953.28,2248.09,4.96,1976.67,953.67
1026,954.65,2263.17,14.07,1940.33,936.00
1035,956.02,2278.19,30.84,1937.33,948.00
1044,957.39,2293.14,0.00,1889.67,941.33
1053,958.75,2308.03,12.56,1892.00,940.00
1062,960.12,2322.85,0.00,1862.00,938.00
1071,961.48,2337.61,20.98,1874.00,940.00
1080,962.84,2352.31,1.75,1849.33,940.00
1089,964.20,2366.94,2.19,1849.00,950.00
1098,965.56,2381.51,0.00,1833.33,947.67
1107,966.91,2396.01,0.00,1858.00,951.33
1116,968.26,2410.45,53.75,1921.00,941.00
1125,969.61,2424.83,98.97,1979.00,939.67
1134,970.96,2439.14,35.36,1969.00,945.00
1143,972.30,2453.39,0.00,1959.33,938.67
1152,973.65,2467.58,2.86,2007.33,945.33
1161,974.99,2481.70,0.00,2048.67,945.67
1170,976.33,2495.76,64.31,2136.67,950.00
1179,977.66,2509.76,217.66,2271.33,947.67
1188,979.00,2523.70,340.55,2386.33,954.67
1197,980.33,2537.57,333.54,2387.67,937.33
1206,981.66,2551.38,107.64,2320.67,958.67
1215,982.98,2565.13,152.87,2331.33,940.33
1224,984.31,2578.82,325.47,2429.00,940.67
1233,985.63,2592.44,607.05,2565.67,938.67
1242,986.95,2606.01,735.57,2656.00,969.67
1251,988.27,2619.51,686.12,2615.00,964.00
1260,989.58,2632.95,429.60,2472.00,957.33
1269,990.89,2646.33,61.02,2336.67,982.33
1278,992.20,2659.65,12.30,2281.00,959.33
1287,993.51,2672.91,27.09,2285.67,959.67
1296,994.81,2686.10,0.00,2263.67,960.00
1305,996.12,2699.24,15.44,2283.33,962.67
1314,997.41,2712.32,89.63,2315.67,964.67
1323,998.71,2725.33,131.58,2316.67,952.00
1332,1000.01,2738.29,61.76,2303.67,970.33
1341,1001.30,2751.18,0.00,2295.33,994.33
1350,1002.59,2764.02,0.00,2273.33,976.67
1359,1003.87,2776.79,44.82,2296.67,960.33
1368,1005.15,2789.51,111.41,2338.00,968.67
1377,1006.43,2802.17,65.38,2329.67,960.00
1386,1007.71,2814.77,240.66,2365.67,938.33
1395,1008.99,2827.30,295.60,2399.33,951.00
1404,1010.26,2839.78,8.68,2341.00,971.67
1413,1011.53,2852.21,0.00,2303.67,954.00
1422,1012.80,2864.57,117.58,2432.00,981.33
1431,1014.06,2876.87,888.95,2624.67,946.33
1440,1015.32,2889.12,557.01,2620.67,969.33
1449,1016.58,2901.31,638.21,2625.00,953.67
1458,1017.83,2913.44,274.16,2561.00,945.33
1467,1019.09,2925.51,18.60,2545.67,962.00
1476,1020.33,2937.53,756.71,2686.33,983.33
1485,1021.58,2949.49,2883.21,3037.00,964.00
1494,1022.82,2961.39,8919.96,4344.00,960.00
1503,1024.07,2973.23,23338.43,6408.00,993.00
1512,1025.30,2985.02,4581.64,3125.33,948.33
1521,1026.54,2996.75,2686.37,2654.00,970.67
1530,1027.77,3008.43,13344.12,3874.67,969.67
1539,1029.00,3020.05,525.59,1965.00,947.00
1548,1030.22,3031.61,21.18,1694.00,952.67
1557,1031.45,3043.12,0.00,1587.00,967.33
1566,1032.67,3054.57,0.00,1517.67,945.67
1575,1033.88,3065.97,0.00,1451.67,930.67
1584,1035.10,3077.31,159.54,1472.00,959.67
1593,1036.31,3088.60,0.00,1433.67,969.00
1602,1037.52,3099.83,29.64,1418.67,957.00
1611,1038.72,3111.00,223.67,1442.33,974.00
1620,1039.92,3122.13,569.05,1471.33,976.67
1629,1041.12,3133.20,1457.27,1552.33,975.33
1638,1042.32,3144.21,1684.32,1541.67,965.33
1647,1043.51,3155.17,1314.44,1485.33,970.33
1656,1044.70,3166.08,658.42,1411.33,981.67
1665,1045.88,3176.93,253.13,1344.33,973.33
1674,1047.07,3187.73,81.99,1293.00,950.67
1683,1048.24,3198.48,10.50,1293.00,978.67
1692,1049.42,3209.17,0.00,1270.00,973.00
1701,1050.59,3219.81,59.78,1247.67,960.67
1710,1051.76,3230.40,142.71,1250.67,973.67
1719,1052.93,3240.94,109.00,1208.00,947.00
1728,1054.10,3251.42,446.98,1229.00,961.33
1737,1055.26,3261.86,340.60,1224.00,975.33
1746,1056.41,3272.24,319.53,1217.00,984.33
1755,1057.57,3282.57,485.16,1210.67,985.00
1764,1058.72,3292.85,308.82,1176.00,969.67
1773,1059.87,3303.07,84.56,1155.00,972.33
1782,1061.01,3313.25,272.39,1139.33,963.33
1791,1062.15,3323.38,236.63,1124.00,955.67
1800,1063.29,3333.45,215.77,1114.67,962.67
1809,1064.42,3343.48,322.94,1119.67,971.67
1818,1065.55,3353.45,345.18,1099.67,961.33
1827,1066.68,3363.38,160.66,1092.33,968.33
1836,1067.81,3373.25,392.09,1067.33,941.67
1845,1068.93,3383.08,207.59,1058.00,948.33
1854,1070.05,3392.85,210.06,1094.67,989.33
1863,1071.16,3402.58,202.51,1064.67,970.33
1872,1072.27,3412.26,519.89,1064.67,966.67
1881,1073.38,3421.89,549.38,1028.67,937.33
1890,1074.49,3431.47,180.33,1032.67,955.67
1899,1075.59,3441.00,523.87,1040.00,960.00
1908,1076.69,3450.49,377.80,1047.33,973.33
1917,1077.78,3459.93,625.59,1023.33,950.00
1926,1078.87,3469.32,31.97,1028.00,974.67
1935,1079.96,3478.66,288.74,1014.33,958.00
1944,1081.05,3487.95,570.96,1030.00,971.00
1953,1082.13,3497.20,468.45,1015.67,962.67
1962,1083.21,3506.40,323.49,1002.67,955.00
1971,1084.28,3515.56,505.86,1026.33,980.67
1980,1085.36,3524.67,655.21,1011.67,967.00
1989,1086.42,3533.73,0.00,983.33,955.00
1998,1087.49,3542.74,968.67,1000.00,956.67
2007,1088.55,3551.71,626.18,986.67,950.33
2016,1089.61,3560.64,941.10,991.00,951.00
2025,1090.67,3569.52,694.53,989.00,954.33
2034,1091.72,3578.35,733.40,958.00,925.33
2043,1092.77,3587.14,3.60,956.33,935.33
2047,1093.23,3591.03,47.23,948.00,923.33