File: plugins/Raman/MatchingLibrary/785X/ibuprofen.csv
ENLIGHTEN Version,4.1.22
Measurement ID,20250220-201939-285122-WP-01977
Serial Number,WP-01977
Model,WP-785X-F13-R-ILC
Detector,S16011-1106
Label,ibuprofen
Declared Match,
Declared Score,0
Scan Averaging,2
Boxcar,0
Technique,Raman
Baseline Correction Algo,AirPLS
ROI Pixel Start,47
ROI Pixel End,2047
ROI Start Line,0
ROI Stop Line,63
CCD C4,1.38617e-12
Slit Width,25
Cropped,True
Interpolated,False
Wavenumber Correction,-0.100481
Raman Intensity Corrected,True
Deconvolved,True
Region,
High Gain Mode,False
Laser Power mW,
Electrical Dark Correction,False
Battery %,
Device ID,<DeviceID USB:0x24aa:0x1000:0:1>
FW Version,10.0.0.10
FPGA Version,035-001
BLE Version,
Prefix,enlighten
Suffix,
Preset,
Auto-Raman,True
Session Count,0
Plugin Name,
Integration Time,1000
Timestamp,2025-02-20 20:19:39.2851
Note,
Temperature,0
CCD C0,793.274
CCD C1,0.153259
CCD C2,1.40788e-05
CCD C3,-1.132e-08
CCD Offset,0
CCD Gain,1.9
CCD Offset Odd,0
CCD Gain Odd,1.9
Laser Wavelength,785.032
Laser Enable,False
Laser Power %,0
Laser Temperature,0
Pixel Count,2048

Pixel,Wavelength,Wavenumber,Processed,Raw,Dark
0,793.27,132.25,NA,1138.50,1065.50
9,794.65,154.15,NA,1173.00,1091.00
18,796.04,176.01,NA,1215.50,1127.00
27,797.42,197.83,NA,1269.50,1145.50
36,798.81,219.60,NA,1283.50,1108.00
45,800.20,241.33,NA,8002.50,1124.50
54,801.59,263.02,4063.51,12158.00,1181.50
63,802.98,284.66,0.26,6823.50,1171.00
72,804.38,306.26,1280.19,8003.00,1152.00
81,805.77,327.82,277.09,6779.50,1123.00
90,807.17,349.32,359.57,6983.00,1129.00
99,808.57,370.78,453.39,7077.00,1156.50
108,809.98,392.19,218.73,6399.00,1112.00
117,811.38,413.56,1879.59,8760.50,1156.00
126,812.79,434.87,2056.70,8492.50,1117.50
135,814.19,456.14,234.21,5589.50,1091.00
144,815.60,477.36,347.74,5520.00,1138.50
153,817.01,498.52,1827.29,7205.00,1144.00
162,818.42,519.64,921.13,5716.50,1153.00
171,819.84,540.70,0.00,3897.00,1090.50
180,821.25,561.71,0.00,3835.50,1080.50
189,822.67,582.67,1018.58,5343.50,1105.00
198,824.09,603.57,0.98,3860.00,1094.00
207,825.50,624.43,303.79,5044.00,1145.00
216,826.92,645.22,755.79,5986.00,1103.50
225,828.34,665.97,1592.26,6278.50,1079.00
234,829.77,686.66,60.08,4305.00,1328.50
243,831.19,707.29,755.92,4945.50,1163.00
252,832.61,727.87,0.00,3871.50,1157.50
261,834.04,748.39,4230.17,10945.00,1114.50
270,835.47,768.85,807.29,5755.50,1095.00
279,836.89,789.26,9768.46,18301.50,1117.00
288,838.32,809.61,2296.11,8835.00,1117.50
297,839.75,829.90,10044.22,21927.50,1183.00
306,841.18,850.14,4341.69,12830.00,1134.50
315,842.61,870.31,192.46,5471.50,1115.50
324,844.04,890.43,2217.18,8293.00,1088.50
333,845.47,910.49,0.00,4477.50,1109.00
342,846.90,930.49,22.43,4885.00,1119.50
351,848.33,950.43,3874.12,11321.50,1112.00
360,849.77,970.31,461.15,5530.00,1102.50
369,851.20,990.12,152.34,5620.00,1127.00
378,852.63,1009.88,2154.75,9873.00,1161.50
387,854.07,1029.58,0.00,4937.50,1105.00
396,855.50,1049.21,1.40,5411.00,1112.00
405,856.94,1068.79,1109.94,7762.50,1119.50
414,858.37,1088.30,772.75,7780.00,1082.50
423,859.81,1107.75,1277.07,9673.00,1134.00
432,861.25,1127.14,1951.64,10843.50,1140.50
441,862.68,1146.46,0.00,7368.50,1093.00
450,864.12,1165.73,1506.92,10915.50,1118.50
459,865.55,1184.93,23165.93,41218.00,1056.00
468,866.99,1204.06,8044.86,22799.00,1118.50
477,868.43,1223.14,2822.89,15064.50,1106.00
486,869.86,1242.15,143.11,12917.50,1105.50
495,871.30,1261.10,1128.99,14926.00,1094.00
504,872.73,1279.98,3852.44,19767.00,1107.50
513,874.17,1298.80,4269.92,21386.00,1119.50
522,875.60,1317.55,3630.97,21304.00,1121.50
531,877.04,1336.24,5213.91,24568.00,1073.00
540,878.47,1354.87,4270.71,23630.00,1094.00
549,879.91,1373.43,3431.36,22507.50,1105.00
558,881.34,1391.93,2550.63,21450.00,1059.50
567,882.78,1410.36,3800.67,24033.50,1079.50
576,884.21,1428.73,2828.68,23491.00,1137.50
585,885.64,1447.03,8434.29,31270.50,1078.00
594,887.08,1465.26,5993.87,28482.50,1137.00
603,888.51,1483.43,1483.57,22832.00,1110.00
612,889.94,1501.54,570.47,21628.50,1071.00
621,891.37,1519.58,501.56,21376.00,1046.00
630,892.80,1537.56,553.69,21331.50,1083.50
639,894.23,1555.46,8.26,20390.50,1077.00
648,895.66,1573.31,2664.20,22982.00,1082.50
657,897.09,1591.09,93.24,20024.50,1074.00
666,898.52,1608.80,16277.99,40171.50,1089.00
675,899.95,1626.44,1537.78,21467.00,1078.00
684,901.37,1644.02,278.60,18712.50,1088.00
693,902.80,1661.54,439.88,18214.00,1145.00
702,904.22,1678.99,331.80,17267.50,1065.50
711,905.64,1696.37,513.90,16796.00,1103.50
720,907.07,1713.68,356.36,15825.00,1073.00
729,908.49,1730.93,31.78,14716.50,1093.50
738,909.91,1748.12,103.30,14007.00,1084.00
747,911.33,1765.23,0.00,13145.00,1079.50
756,912.75,1782.29,36.94,12675.50,1066.50
765,914.16,1799.27,61.30,12151.50,1086.50
774,915.58,1816.19,155.07,11741.50,1059.00
783,916.99,1833.04,352.56,11510.50,1097.50
792,918.41,1849.83,470.73,11122.50,1110.00
801,919.82,1866.55,606.10,10767.50,1094.00
810,921.23,1883.20,932.27,10631.00,1114.50
819,922.64,1899.79,957.79,10084.00,1058.00
828,924.05,1916.31,910.63,9574.00,1079.00
837,925.46,1932.77,947.48,9116.50,1089.50
846,926.86,1949.16,737.77,8442.50,1105.50
855,928.27,1965.48,690.99,7846.50,1052.00
864,929.67,1981.74,553.50,7260.00,1086.50
873,931.07,1997.93,365.26,6621.50,1105.50
882,932.47,2014.06,244.53,6027.50,1076.00
891,933.87,2030.12,132.92,5491.50,1083.50
900,935.27,2046.11,8.54,4996.00,1136.00
909,936.66,2062.04,0.00,4526.00,1122.50
918,938.06,2077.91,0.00,4100.50,1071.00
927,939.45,2093.70,0.00,3754.50,1089.00
936,940.84,2109.44,9.57,3505.00,1071.50
945,942.23,2125.10,0.00,3237.50,1103.50
954,943.62,2140.70,0.00,3070.00,1100.50
963,945.00,2156.24,4.14,2905.50,1072.50
972,946.39,2171.71,6.29,2783.50,1077.00
981,947.77,2187.12,19.46,2675.50,1051.00
990,949.15,2202.46,0.00,2627.00,1095.50
999,950.53,2217.73,7.04,2564.50,1069.00
1008,951.90,2232.94,29.48,2521.50,1057.00
1017,953.28,2248.09,34.87,2535.00,1119.50
1026,954.65,2263.17,20.45,2427.00,1067.50
1035,956.02,2278.19,6.80,2384.50,1074.00
1044,957.39,2293.14,34.16,2379.00,1088.50
1053,958.75,2308.03,72.93,2355.50,1068.50
1062,960.12,2322.85,80.86,2323.00,1066.50
1071,961.48,2337.61,10.25,2240.50,1079.00
1080,962.84,2352.31,0.00,2184.50,1081.00
1089,964.20,2366.94,104.72,2264.00,1098.00
1098,965.56,2381.51,93.77,2238.50,1092.00
1107,966.91,2396.01,34.82,2189.50,1095.00
1116,968.26,2410.45,84.30,2195.00,1086.00
1125,969.61,2424.83,65.29,2151.50,1068.00
1134,970.96,2439.14,140.96,2183.50,1077.00
1143,972.30,2453.39,14.55,2086.00,1073.00
1152,973.65,2467.58,0.00,2064.00,1079.00
1161,974.99,2481.70,196.54,2174.00,1073.00
1170,976.33,2495.76,185.74,2175.00,1094.00
1179,977.66,2509.76,46.82,2085.00,1092.50
1188,979.00,2523.70,51.72,2110.50,1105.50
1197,980.33,2537.57,55.95,2036.50,1057.50
1206,981.66,2551.38,153.94,2135.00,1117.00
1215,982.98,2565.13,279.72,2132.50,1075.00
1224,984.31,2578.82,158.49,2061.00,1087.00
1233,985.63,2592.44,0.00,1957.50,1078.00
1242,986.95,2606.01,158.55,2085.00,1137.00
1251,988.27,2619.51,120.70,2050.50,1122.50
1260,989.58,2632.95,95.51,2027.00,1119.50
1269,990.89,2646.33,358.58,2148.50,1158.50
1278,992.20,2659.65,37.00,1972.00,1125.50
1287,993.51,2672.91,0.00,1928.50,1119.50
1296,994.81,2686.10,8.47,1929.50,1118.00
1305,996.12,2699.24,50.11,1965.00,1131.00
1314,997.41,2712.32,1844.52,2617.50,1131.00
1323,998.71,2725.33,449.93,2127.50,1105.50
1332,1000.01,2738.29,4.80,1928.00,1138.50
1341,1001.30,2751.18,398.43,2125.50,1189.00
1350,1002.59,2764.02,324.41,2039.00,1164.00
1359,1003.87,2776.79,0.01,1854.00,1114.50
1368,1005.15,2789.51,65.49,1903.50,1131.00
1377,1006.43,2802.17,22.60,1920.00,1114.00
1386,1007.71,2814.77,0.00,1959.50,1091.00
1395,1008.99,2827.30,2.34,2344.00,1097.50
1404,1010.26,2839.78,4889.60,3857.50,1134.00
1413,1011.53,2852.21,4113.87,4031.00,1115.50
1422,1012.80,2864.57,23070.24,8451.50,1174.00
1431,1014.06,2876.87,20506.28,8298.00,1096.50
1440,1015.32,2889.12,13051.06,6452.00,1137.50
1449,1016.58,2901.31,13167.29,6378.50,1130.00
1458,1017.83,2913.44,22125.16,8083.00,1092.00
1467,1019.09,2925.51,21914.67,7857.50,1134.00
1476,1020.33,2937.53,9049.82,5398.50,1156.50
1485,1021.58,2949.49,17875.08,6778.50,1129.00
1494,1022.82,2961.39,19460.73,6999.00,1114.00
1503,1024.07,2973.23,7864.56,4911.00,1194.00
1512,1025.30,2985.02,4614.36,3965.00,1088.00
1521,1026.54,2996.75,0.00,2983.50,1126.00
1530,1027.77,3008.43,4271.06,3493.50,1132.00
1539,1029.00,3020.05,126.38,2858.50,1092.00
1548,1030.22,3031.61,7845.73,3803.00,1102.00
1557,1031.45,3043.12,4991.19,3696.50,1122.50
1566,1032.67,3054.57,31042.06,6299.50,1110.00
1575,1033.88,3065.97,2990.04,2795.00,1035.00
1584,1035.10,3077.31,143.65,2186.50,1127.00
1593,1036.31,3088.60,0.00,1985.50,1127.00
1602,1037.52,3099.83,0.00,1877.00,1106.50
1611,1038.72,3111.00,0.00,1879.00,1143.50
1620,1039.92,3122.13,0.00,1840.00,1145.00
1629,1041.12,3133.20,0.00,1899.00,1161.00
1638,1042.32,3144.21,303.22,1948.50,1117.00
1647,1043.51,3155.17,91.78,1990.50,1117.00
1656,1044.70,3166.08,259.73,2122.50,1183.00
1665,1045.88,3176.93,741.91,2160.00,1156.00
1674,1047.07,3187.73,1685.65,2179.50,1109.00
1683,1048.24,3198.48,2561.83,2292.00,1160.00
1692,1049.42,3209.17,4313.93,2394.00,1148.00
1701,1050.59,3219.81,5872.97,2468.50,1139.50
1710,1051.76,3230.40,7067.82,2551.00,1165.00
1719,1052.93,3240.94,7777.17,2493.00,1091.00
1728,1054.10,3251.42,8818.48,2570.50,1140.50
1737,1055.26,3261.86,10062.36,2627.00,1158.50
1746,1056.41,3272.24,10834.65,2643.00,1181.50
1755,1057.57,3282.57,10980.95,2617.50,1196.50
1764,1058.72,3292.85,11140.34,2517.00,1145.50
1773,1059.87,3303.07,11071.17,2457.00,1135.50
1782,1061.01,3313.25,10847.67,2409.50,1141.50
1791,1062.15,3323.38,10977.94,2330.00,1108.50
1800,1063.29,3333.45,10430.92,2264.50,1115.50
1809,1064.42,3343.48,9728.35,2217.50,1141.50
1818,1065.55,3353.45,9050.50,2125.50,1126.00
1827,1066.68,3363.38,9007.54,2105.50,1145.00
1836,1067.81,3373.25,8673.09,1992.00,1079.50
1845,1068.93,3383.08,8261.41,1940.50,1080.50
1854,1070.05,3392.85,7876.81,2011.50,1202.50
1863,1071.16,3402.58,7193.14,1886.50,1127.00
1872,1072.27,3412.26,6623.97,1847.50,1138.50
1881,1073.38,3421.89,5911.95,1737.50,1075.00
1890,1074.49,3431.47,5525.34,1730.50,1103.50
1899,1075.59,3441.00,5087.26,1696.50,1108.00
1908,1076.69,3450.49,4768.07,1711.00,1151.50
1917,1077.78,3459.93,4046.22,1607.00,1090.00
1926,1078.87,3469.32,3142.68,1625.50,1147.00
1935,1079.96,3478.66,3417.06,1565.00,1106.00
1944,1081.05,3487.95,2621.46,1568.50,1138.50
1953,1082.13,3497.20,574.99,1509.50,1143.00
1962,1083.21,3506.40,1613.72,1464.50,1094.50
1971,1084.28,3515.56,1249.92,1498.50,1163.50
1980,1085.36,3524.67,364.39,1425.50,1126.00
1989,1086.42,3533.73,1587.68,1393.00,1092.00
1998,1087.49,3542.74,723.19,1389.00,1116.00
2007,1088.55,3551.71,354.20,1333.00,1091.00
2016,1089.61,3560.64,1395.16,1332.00,1088.00
2025,1090.67,3569.52,3055.82,1336.00,1088.00
2034,1091.72,3578.35,264.32,1244.00,1041.00
2043,1092.77,3587.14,914.59,1234.00,1042.00
2047,1093.23,3591.03,16.24,1204.00,1024.00