File: plugins/Raman/MatchingLibrary/785X/methanol.csv
ENLIGHTEN Version,4.1.22
Measurement ID,20250220-200205-954211-WP-01977
Serial Number,WP-01977
Model,WP-785X-F13-R-ILC
Detector,S16011-1106
Label,methanol
Declared Match,
Declared Score,0
Scan Averaging,3
Boxcar,0
Technique,Raman
Baseline Correction Algo,AirPLS
ROI Pixel Start,47
ROI Pixel End,2047
ROI Start Line,0
ROI Stop Line,63
CCD C4,1.38617e-12
Slit Width,25
Cropped,True
Interpolated,False
Wavenumber Correction,-0.100481
Raman Intensity Corrected,True
Deconvolved,True
Region,
High Gain Mode,False
Laser Power mW,
Electrical Dark Correction,False
Battery %,
Device ID,<DeviceID USB:0x24aa:0x1000:0:1>
FW Version,10.0.0.10
FPGA Version,035-001
BLE Version,
Prefix,enlighten
Suffix,
Preset,
Auto-Raman,True
Session Count,0
Plugin Name,
Integration Time,479
Timestamp,2025-02-20 20:02:05.954211
Note,
Temperature,0
CCD C0,793.274
CCD C1,0.153259
CCD C2,1.40788e-05
CCD C3,-1.132e-08
CCD Offset,0
CCD Gain,1.9
CCD Offset Odd,0
CCD Gain Odd,1.9
Laser Wavelength,785.032
Laser Enable,False
Laser Power %,0
Laser Temperature,0
Pixel Count,2048

Pixel,Wavelength,Wavenumber,Processed,Raw,Dark
0,793.27,132.25,NA,962.67,951.33
9,794.65,154.15,NA,973.33,962.00
18,796.04,176.01,NA,996.00,970.00
27,797.42,197.83,NA,1010.00,984.00
36,798.81,219.60,NA,1008.67,969.33
45,800.20,241.33,NA,3216.00,979.00
54,801.59,263.02,347.41,3213.00,992.67
63,802.98,284.66,203.18,2844.67,986.67
72,804.38,306.26,31.21,2424.33,986.67
81,805.77,327.82,0.00,2128.67,969.33
90,807.17,349.32,0.00,1985.33,979.67
99,808.57,370.78,1.93,1934.67,983.00
108,809.98,392.19,0.00,1862.33,967.00
117,811.38,413.56,12.49,1880.33,986.33
126,812.79,434.87,37.47,1877.33,974.67
135,814.19,456.14,53.16,1848.67,956.33
144,815.60,477.36,69.65,1868.33,981.00
153,817.01,498.52,51.10,1804.33,980.33
162,818.42,519.64,0.00,1698.00,983.67
171,819.84,540.70,0.00,1636.00,961.33
180,821.25,561.71,0.24,1633.33,955.67
189,822.67,582.67,11.31,1658.00,970.00
198,824.09,603.57,26.48,1665.00,957.33
207,825.50,624.43,39.93,1703.00,982.00
216,826.92,645.22,24.79,1664.67,966.33
225,828.34,665.97,47.68,1670.67,953.67
234,829.77,686.66,40.01,1721.00,1021.67
243,831.19,707.29,27.47,1669.00,995.67
252,832.61,727.87,31.31,1650.33,983.00
261,834.04,748.39,14.32,1608.33,971.33
270,835.47,768.85,10.93,1579.00,960.67
279,836.89,789.26,23.02,1593.33,967.33
288,838.32,809.61,16.63,1581.00,973.67
297,839.75,829.90,0.00,1566.33,1000.67
306,841.18,850.14,0.00,1533.33,977.67
315,842.61,870.31,0.99,1558.67,966.00
324,844.04,890.43,0.00,1598.67,963.00
333,845.47,910.49,1.59,1749.33,966.67
342,846.90,930.49,0.00,1887.00,977.67
351,848.33,950.43,0.00,2134.00,970.67
360,849.77,970.31,129.09,2567.00,967.00
369,851.20,990.12,739.70,3721.67,968.33
378,852.63,1009.88,4427.28,10334.67,998.33
387,854.07,1029.58,21059.43,37411.67,977.00
396,855.50,1049.21,8727.62,18595.67,979.00
405,856.94,1068.79,1960.77,6036.33,971.00
414,858.37,1088.30,1717.22,5606.33,960.00
423,859.81,1107.75,2620.63,7091.67,986.67
432,861.25,1127.14,1922.62,6022.00,982.00
441,862.68,1146.46,1259.47,4952.67,960.67
450,864.12,1165.73,1129.54,4727.00,974.00
459,865.55,1184.93,327.05,3429.33,937.33
468,866.99,1204.06,55.03,3051.00,966.67
477,868.43,1223.14,0.00,2928.67,957.33
486,869.86,1242.15,0.00,3005.67,967.00
495,871.30,1261.10,0.00,3229.33,966.67
504,872.73,1279.98,0.00,3548.33,966.67
513,874.17,1298.80,41.94,3965.67,965.33
522,875.60,1317.55,306.86,4497.00,973.33
531,877.04,1336.24,530.35,4878.67,948.67
540,878.47,1354.87,863.33,5442.00,958.67
549,879.91,1373.43,1227.73,6046.67,972.67
558,881.34,1391.93,1670.85,6727.67,942.33
567,882.78,1410.36,2182.71,7555.00,955.00
576,884.21,1428.73,2862.47,8719.67,987.67
585,885.64,1447.03,8232.76,16567.67,952.33
594,887.08,1465.26,8953.47,17946.67,984.00
603,888.51,1483.43,6854.10,14658.00,978.33
612,889.94,1501.54,4019.44,10345.00,950.33
621,891.37,1519.58,2769.88,8413.33,933.67
630,892.80,1537.56,2230.83,7604.67,956.33
639,894.23,1555.46,1771.50,6896.00,945.00
648,895.66,1573.31,1297.72,6209.33,961.00
657,897.09,1591.09,728.63,5378.33,947.33
666,898.52,1608.80,312.10,4789.67,953.33
675,899.95,1626.44,62.20,4338.67,952.67
684,901.37,1644.02,0.00,3951.33,956.67
693,902.80,1661.54,32.68,3755.33,975.33
702,904.22,1678.99,0.00,3432.33,945.00
711,905.64,1696.37,0.22,3269.00,970.67
720,907.07,1713.68,9.83,3075.00,949.00
729,908.49,1730.93,0.00,2888.00,955.67
738,909.91,1748.12,16.59,2787.33,954.00
747,911.33,1765.23,0.00,2622.00,956.33
756,912.75,1782.29,6.86,2547.33,948.67
765,914.16,1799.27,22.70,2472.00,947.00
774,915.58,1816.19,5.97,2386.33,945.67
783,916.99,1833.04,26.78,2342.33,962.67
792,918.41,1849.83,82.97,2329.67,963.33
801,919.82,1866.55,85.46,2248.33,947.67
810,921.23,1883.20,99.26,2211.33,961.33
819,922.64,1899.79,74.75,2097.67,941.00
828,924.05,1916.31,0.00,2062.00,1071.00
837,925.46,1932.77,101.05,2003.67,953.33
846,926.86,1949.16,49.32,1892.67,964.00
855,928.27,1965.48,65.84,1815.67,937.33
864,929.67,1981.74,53.07,1756.67,953.33
873,931.07,1997.93,3.53,1658.00,967.67
882,932.47,2014.06,42.60,1614.67,946.33
891,933.87,2030.12,51.79,1582.67,959.67
900,935.27,2046.11,61.21,1551.00,975.33
909,936.66,2062.04,24.12,1461.00,974.00
918,938.06,2077.91,4.74,1365.67,950.67
927,939.45,2093.70,0.00,1311.00,955.00
936,940.84,2109.44,8.44,1271.00,945.67
945,942.23,2125.10,0.00,1253.33,963.33
954,943.62,2140.70,6.06,1239.33,961.33
963,945.00,2156.24,7.02,1216.00,949.00
972,946.39,2171.71,0.00,1201.33,953.67
981,947.77,2187.12,17.31,1200.00,939.67
990,949.15,2202.46,36.03,1231.00,960.00
999,950.53,2217.73,85.65,1246.67,941.67
1008,951.90,2232.94,86.68,1239.67,939.00
1017,953.28,2248.09,101.04,1264.67,965.33
1026,954.65,2263.17,73.64,1218.00,945.00
1035,956.02,2278.19,58.85,1215.67,961.33
1044,957.39,2293.14,102.23,1237.00,958.67
1053,958.75,2308.03,137.56,1245.00,950.00
1062,960.12,2322.85,68.43,1187.33,949.00
1071,961.48,2337.61,14.35,1142.33,951.33
1080,962.84,2352.31,0.00,1132.33,962.00
1089,964.20,2366.94,0.00,1125.67,963.33
1098,965.56,2381.51,19.18,1135.33,955.00
1107,966.91,2396.01,7.79,1140.33,962.33
1116,968.26,2410.45,0.00,1140.00,958.67
1125,969.61,2424.83,31.16,1157.33,945.67
1134,970.96,2439.14,21.04,1176.00,950.67
1143,972.30,2453.39,37.87,1200.67,952.67
1152,973.65,2467.58,96.61,1246.67,951.33
1161,974.99,2481.70,124.75,1275.00,954.00
1170,976.33,2495.76,114.77,1284.33,960.00
1179,977.66,2509.76,145.37,1308.33,958.00
1188,979.00,2523.70,177.54,1344.67,968.33
1197,980.33,2537.57,287.43,1389.33,945.67
1206,981.66,2551.38,331.06,1440.67,968.67
1215,982.98,2565.13,346.67,1441.00,953.33
1224,984.31,2578.82,386.02,1456.00,947.00
1233,985.63,2592.44,395.15,1470.67,956.00
1242,986.95,2606.01,330.56,1469.67,985.00
1251,988.27,2619.51,277.01,1429.67,974.67
1260,989.58,2632.95,146.87,1365.33,974.67
1269,990.89,2646.33,59.12,1348.00,990.67
1278,992.20,2659.65,0.00,1302.00,972.67
1287,993.51,2672.91,49.74,1315.00,963.33
1296,994.81,2686.10,0.00,1310.00,973.00
1305,996.12,2699.24,19.48,1358.33,980.33
1314,997.41,2712.32,26.74,1403.33,980.33
1323,998.71,2725.33,0.00,1434.67,965.33
1332,1000.01,2738.29,0.00,1548.67,992.67
1341,1001.30,2751.18,0.00,1684.67,1011.33
1350,1002.59,2764.02,0.00,1843.33,988.67
1359,1003.87,2776.79,2.73,2146.67,975.67
1368,1005.15,2789.51,1031.89,2663.33,977.00
1377,1006.43,2802.17,4080.62,3750.67,977.33
1386,1007.71,2814.77,12919.61,6741.00,964.67
1395,1008.99,2827.30,43341.33,15999.33,971.33
1404,1010.26,2839.78,53914.10,18142.00,988.33
1413,1011.53,2852.21,18496.57,8117.00,974.00
1422,1012.80,2864.57,9744.26,5305.67,1002.67
1431,1014.06,2876.87,7707.59,4601.33,964.00
1440,1015.32,2889.12,9100.43,4934.67,988.00
1449,1016.58,2901.31,13590.49,6018.00,983.67
1458,1017.83,2913.44,21637.73,7793.33,970.33
1467,1019.09,2925.51,29481.41,9598.00,982.33
1476,1020.33,2937.53,44853.77,12652.00,999.33
1485,1021.58,2949.49,44444.21,12135.00,983.00
1494,1022.82,2961.39,25371.47,8041.00,981.00
1503,1024.07,2973.23,16666.75,6011.33,1007.00
1512,1025.30,2985.02,12777.14,5000.67,964.00
1521,1026.54,2996.75,8252.12,4074.33,983.00
1530,1027.77,3008.43,4116.84,3244.00,980.33
1539,1029.00,3020.05,953.42,2636.67,961.33
1548,1030.22,3031.61,0.00,2283.33,968.67
1557,1031.45,3043.12,0.00,2090.67,976.00
1566,1032.67,3054.57,0.00,1913.00,964.33
1575,1033.88,3065.97,0.00,1777.33,936.67
1584,1035.10,3077.31,22.63,1727.33,976.00
1593,1036.31,3088.60,39.87,1660.00,979.00
1602,1037.52,3099.83,0.00,1566.67,970.00
1611,1038.72,3111.00,68.48,1553.67,988.67
1620,1039.92,3122.13,0.00,1505.67,990.33
1629,1041.12,3133.20,9.65,1482.00,993.33
1638,1042.32,3144.21,109.73,1447.33,970.67
1647,1043.51,3155.17,184.34,1444.00,978.33
1656,1044.70,3166.08,429.91,1472.00,1005.00
1665,1045.88,3176.93,588.21,1455.67,994.00
1674,1047.07,3187.73,846.95,1435.33,972.33
1683,1048.24,3198.48,1203.30,1474.00,998.67
1692,1049.42,3209.17,1746.80,1496.67,994.67
1701,1050.59,3219.81,2262.58,1495.00,974.00
1710,1051.76,3230.40,2780.11,1529.00,992.67
1719,1052.93,3240.94,3217.50,1507.00,960.33
1728,1054.10,3251.42,3366.74,1520.33,988.00
1737,1055.26,3261.86,4104.78,1549.33,992.33
1746,1056.41,3272.24,4203.33,1542.00,1004.67
1755,1057.57,3282.57,4213.35,1515.33,1001.67
1764,1058.72,3292.85,4529.77,1491.67,987.33
1773,1059.87,3303.07,4521.62,1467.33,982.00
1782,1061.01,3313.25,4512.24,1443.00,982.33
1791,1062.15,3323.38,4828.07,1427.67,975.67
1800,1063.29,3333.45,4698.53,1405.00,975.33
1809,1064.42,3343.48,4795.50,1398.00,986.67
1818,1065.55,3353.45,4673.53,1367.00,977.00
1827,1066.68,3363.38,4656.33,1354.33,989.00
1836,1067.81,3373.25,5092.63,1323.33,956.67
1845,1068.93,3383.08,5159.50,1307.00,957.67
1854,1070.05,3392.85,4352.35,1318.00,1010.67
1863,1071.16,3402.58,5040.69,1285.33,972.67
1872,1072.27,3412.26,4210.59,1255.67,981.67
1881,1073.38,3421.89,4404.91,1215.00,950.33
1890,1074.49,3431.47,3895.78,1206.67,972.67
1899,1075.59,3441.00,3906.34,1194.33,967.67
1908,1076.69,3450.49,3773.72,1200.67,991.67
1917,1077.78,3459.93,3788.56,1159.33,964.00
1926,1078.87,3469.32,3486.69,1165.00,983.00
1935,1079.96,3478.66,3217.30,1137.33,969.67
1944,1081.05,3487.95,3302.11,1141.00,983.00
1953,1082.13,3497.20,2787.77,1122.33,984.00
1962,1083.21,3506.40,2256.96,1092.33,969.67
1971,1084.28,3515.56,2712.71,1115.00,992.33
1980,1085.36,3524.67,1909.96,1074.67,974.00
1989,1086.42,3533.73,1998.97,1061.00,962.00
1998,1087.49,3542.74,924.03,1053.67,977.33
2007,1088.55,3551.71,885.65,1031.67,961.33
2016,1089.61,3560.64,1407.13,1031.67,957.67
2025,1090.67,3569.52,1437.01,1041.00,969.00
2034,1091.72,3578.35,930.56,998.67,937.33
2043,1092.77,3587.14,0.00,983.67,943.00
2047,1093.23,3591.03,0.55,976.67,934.67