File: plugins/Raman/MatchingLibrary/785X/methyl ethyl ketone.csv
ENLIGHTEN Version,4.1.22
Measurement ID,20250220-200339-486237-WP-01977
Serial Number,WP-01977
Model,WP-785X-F13-R-ILC
Detector,S16011-1106
Label,methyl ethyl ketone
Declared Match,
Declared Score,0
Scan Averaging,4
Boxcar,0
Technique,Raman
Baseline Correction Algo,AirPLS
ROI Pixel Start,47
ROI Pixel End,2047
ROI Start Line,0
ROI Stop Line,63
CCD C4,1.38617e-12
Slit Width,25
Cropped,True
Interpolated,False
Wavenumber Correction,-0.100481
Raman Intensity Corrected,True
Deconvolved,True
Region,
High Gain Mode,False
Laser Power mW,
Electrical Dark Correction,False
Battery %,
Device ID,<DeviceID USB:0x24aa:0x1000:0:1>
FW Version,10.0.0.10
FPGA Version,035-001
BLE Version,
Prefix,enlighten
Suffix,
Preset,
Auto-Raman,True
Session Count,0
Plugin Name,
Integration Time,333
Timestamp,2025-02-20 20:03:39.4862
Note,
Temperature,0
CCD C0,793.274
CCD C1,0.153259
CCD C2,1.40788e-05
CCD C3,-1.132e-08
CCD Offset,0
CCD Gain,1.9
CCD Offset Odd,0
CCD Gain Odd,1.9
Laser Wavelength,785.032
Laser Enable,False
Laser Power %,0
Laser Temperature,0
Pixel Count,2048

Pixel,Wavelength,Wavenumber,Processed,Raw,Dark
0,793.27,132.25,NA,931.50,919.50
9,794.65,154.15,NA,945.50,922.00
18,796.04,176.01,NA,961.50,936.50
27,797.42,197.83,NA,978.50,941.50
36,798.81,219.60,NA,976.50,928.00
45,800.20,241.33,NA,2982.75,931.00
54,801.59,263.02,1551.95,4478.00,952.00
63,802.98,284.66,127.13,2561.00,949.00
72,804.38,306.26,0.00,2102.50,942.75
81,805.77,327.82,0.00,1937.75,932.50
90,807.17,349.32,2.08,1969.00,939.50
99,808.57,370.78,139.79,2149.50,943.00
108,809.98,392.19,1022.90,3539.75,932.50
117,811.38,413.56,3672.83,7182.75,945.00
126,812.79,434.87,403.23,2495.50,936.25
135,814.19,456.14,285.98,2267.25,921.25
144,815.60,477.36,558.40,2648.25,941.25
153,817.01,498.52,354.47,2360.75,944.50
162,818.42,519.64,1144.91,3411.50,948.00
171,819.84,540.70,339.93,2262.25,925.75
180,821.25,561.71,736.90,2879.25,922.00
189,822.67,582.67,4157.26,8433.50,929.75
198,824.09,603.57,1943.21,5079.25,926.50
207,825.50,624.43,223.63,1972.00,943.50
216,826.92,645.22,2.63,1562.00,930.75
225,828.34,665.97,0.00,1470.25,919.00
234,829.77,686.66,1.46,1586.25,964.00
243,831.19,707.29,132.41,1827.25,947.75
252,832.61,727.87,829.48,3081.00,947.00
261,834.04,748.39,7076.91,14366.50,934.50
270,835.47,768.85,13976.38,26543.50,934.00
279,836.89,789.26,1077.46,3533.00,933.25
288,838.32,809.61,312.65,2183.25,937.00
297,839.75,829.90,75.66,1795.50,947.00
306,841.18,850.14,0.00,1616.00,934.75
315,842.61,870.31,135.41,1819.25,935.00
324,844.04,890.43,0.00,1647.00,924.50
333,845.47,910.49,154.47,2002.00,927.25
342,846.90,930.49,976.14,3460.25,938.75
351,848.33,950.43,1788.50,4788.75,928.00
360,849.77,970.31,975.20,3639.25,938.50
369,851.20,990.12,2732.31,6501.50,931.25
378,852.63,1009.88,1168.91,4124.00,946.00
387,854.07,1029.58,332.18,2613.50,927.50
396,855.50,1049.21,176.89,2412.50,937.00
405,856.94,1068.79,768.20,3568.50,927.00
414,858.37,1088.30,11534.77,18280.00,927.00
423,859.81,1107.75,771.39,3596.50,946.00
432,861.25,1127.14,5.05,2340.75,940.50
441,862.68,1146.46,4.67,2432.75,922.50
450,864.12,1165.73,1067.62,4272.75,934.50
459,865.55,1184.93,496.55,3521.50,915.00
468,866.99,1204.06,186.25,3045.75,931.75
477,868.43,1223.14,0.00,2817.75,927.00
486,869.86,1242.15,379.30,3739.25,932.75
495,871.30,1261.10,1639.76,5765.50,931.75
504,872.73,1279.98,146.26,3657.75,930.25
513,874.17,1298.80,1.52,3584.50,927.50
522,875.60,1317.55,277.63,4092.25,932.25
531,877.04,1336.24,1021.01,5337.50,919.50
540,878.47,1354.87,1273.83,5764.00,926.50
549,879.91,1373.43,1394.75,5947.75,929.50
558,881.34,1391.93,1973.55,6930.25,916.00
567,882.78,1410.36,5957.95,13032.50,925.50
576,884.21,1428.73,6652.26,14231.75,938.50
585,885.64,1447.03,6161.11,13388.50,918.25
594,887.08,1465.26,5301.91,11824.50,938.50
603,888.51,1483.43,1969.47,6853.00,936.50
612,889.94,1501.54,1170.43,5566.00,916.50
621,891.37,1519.58,697.18,4847.00,905.25
630,892.80,1537.56,348.92,4330.50,916.25
639,894.23,1555.46,35.81,3848.50,913.75
648,895.66,1573.31,0.00,3546.25,920.00
657,897.09,1591.09,0.00,3298.75,913.75
666,898.52,1608.80,0.00,3170.25,923.50
675,899.95,1626.44,0.00,3123.00,920.25
684,901.37,1644.02,23.03,3111.00,923.25
693,902.80,1661.54,173.21,3228.50,938.75
702,904.22,1678.99,510.58,3555.75,914.25
711,905.64,1696.37,1745.57,5539.25,931.00
720,907.07,1713.68,10075.23,15394.00,925.50
729,908.49,1730.93,2434.71,6110.50,929.50
738,909.91,1748.12,610.35,3311.25,922.50
747,911.33,1765.23,215.22,2656.25,916.00
756,912.75,1782.29,21.50,2307.50,919.00
765,914.16,1799.27,0.00,2149.25,923.50
774,915.58,1816.19,0.00,2048.25,910.50
783,916.99,1833.04,22.93,2044.25,926.00
792,918.41,1849.83,58.82,2027.50,929.00
801,919.82,1866.55,61.54,1971.00,924.00
810,921.23,1883.20,99.92,1961.75,927.50
819,922.64,1899.79,107.43,1896.75,917.75
828,924.05,1916.31,82.83,1813.50,918.75
837,925.46,1932.77,56.24,1735.50,921.00
846,926.86,1949.16,58.37,1683.50,922.00
855,928.27,1965.48,29.86,1591.50,912.75
864,929.67,1981.74,40.44,1556.00,919.75
873,931.07,1997.93,25.73,1496.50,925.50
882,932.47,2014.06,19.32,1435.25,920.25
891,933.87,2030.12,4.16,1374.50,922.25
900,935.27,2046.11,15.21,1356.25,937.75
909,936.66,2062.04,8.14,1304.25,933.25
918,938.06,2077.91,4.51,1250.00,915.50
927,939.45,2093.70,0.00,1234.00,926.25
936,940.84,2109.44,39.54,1250.50,914.25
945,942.23,2125.10,45.38,1254.75,926.50
954,943.62,2140.70,19.94,1220.75,926.75
963,945.00,2156.24,27.76,1207.00,917.50
972,946.39,2171.71,48.81,1213.50,918.25
981,947.77,2187.12,66.27,1204.50,909.50
990,949.15,2202.46,69.37,1213.75,926.50
999,950.53,2217.73,56.81,1178.25,913.25
1008,951.90,2232.94,18.78,1132.25,910.50
1017,953.28,2248.09,0.00,1120.50,929.75
1026,954.65,2263.17,0.00,1102.75,917.50
1035,956.02,2278.19,16.91,1114.00,914.00
1044,957.39,2293.14,25.36,1133.75,926.50
1053,958.75,2308.03,65.22,1150.00,915.75
1062,960.12,2322.85,67.94,1148.50,913.00
1071,961.48,2337.61,78.63,1156.25,914.00
1080,962.84,2352.31,40.21,1140.00,923.50
1089,964.20,2366.94,55.80,1145.50,924.00
1098,965.56,2381.51,18.18,1118.50,923.50
1107,966.91,2396.01,10.56,1114.00,926.00
1116,968.26,2410.45,0.00,1103.00,927.50
1125,969.61,2424.83,11.21,1104.25,915.00
1134,970.96,2439.14,7.33,1115.25,926.25
1143,972.30,2453.39,74.91,1153.75,919.25
1152,973.65,2467.58,116.14,1183.50,920.75
1161,974.99,2481.70,159.83,1202.25,915.00
1170,976.33,2495.76,176.67,1228.25,922.50
1179,977.66,2509.76,272.65,1278.25,924.50
1188,979.00,2523.70,193.42,1243.50,932.75
1197,980.33,2537.57,140.54,1190.25,914.50
1206,981.66,2551.38,59.96,1166.00,936.75
1215,982.98,2565.13,14.89,1125.75,919.25
1224,984.31,2578.82,0.00,1117.00,918.75
1233,985.63,2592.44,0.26,1128.00,919.00
1242,986.95,2606.01,16.90,1168.50,941.50
1251,988.27,2619.51,0.19,1163.00,930.25
1260,989.58,2632.95,0.50,1178.25,930.50
1269,990.89,2646.33,0.01,1226.00,947.25
1278,992.20,2659.65,191.62,1339.25,931.50
1287,993.51,2672.91,715.93,1592.25,932.25
1296,994.81,2686.10,686.27,1613.50,933.00
1305,996.12,2699.24,434.42,1541.25,938.75
1314,997.41,2712.32,436.91,1570.00,939.00
1323,998.71,2725.33,997.79,1827.50,929.50
1332,1000.01,2738.29,2307.93,2250.50,946.25
1341,1001.30,2751.18,505.34,1686.25,962.00
1350,1002.59,2764.02,4.04,1497.00,941.50
1359,1003.87,2776.79,0.00,1489.75,933.25
1368,1005.15,2789.51,0.00,1582.25,935.25
1377,1006.43,2802.17,0.00,1866.25,934.00
1386,1007.71,2814.77,95.59,2196.00,924.00
1395,1008.99,2827.30,278.92,2498.00,925.50
1404,1010.26,2839.78,2076.39,2980.75,940.00
1413,1011.53,2852.21,3201.41,3281.00,932.50
1422,1012.80,2864.57,6067.65,4108.00,960.00
1431,1014.06,2876.87,18540.38,7408.50,925.00
1440,1015.32,2889.12,31194.37,10574.50,947.00
1449,1016.58,2901.31,41471.15,12619.00,938.75
1458,1017.83,2913.44,50685.78,15136.00,929.75
1467,1019.09,2925.51,73910.08,18872.25,945.50
1476,1020.33,2937.53,55135.36,14589.50,956.25
1485,1021.58,2949.49,33075.13,9692.25,945.50
1494,1022.82,2961.39,21059.32,6587.50,929.75
1503,1024.07,2973.23,18793.35,5920.25,958.00
1512,1025.30,2985.02,17375.48,5360.25,929.25
1521,1026.54,2996.75,11952.43,4261.75,938.25
1530,1027.77,3008.43,8434.81,3456.50,938.25
1539,1029.00,3020.05,3890.62,2596.00,928.50
1548,1030.22,3031.61,1183.42,2071.00,924.50
1557,1031.45,3043.12,12.81,1781.25,937.75
1566,1032.67,3054.57,0.00,1596.75,925.50
1575,1033.88,3065.97,36.36,1480.00,912.25
1584,1035.10,3077.31,21.59,1411.25,936.50
1593,1036.31,3088.60,0.00,1338.50,941.50
1602,1037.52,3099.83,38.08,1281.75,929.00
1611,1038.72,3111.00,0.00,1248.25,945.00
1620,1039.92,3122.13,0.00,1210.50,941.50
1629,1041.12,3133.20,0.00,1193.50,947.50
1638,1042.32,3144.21,49.96,1162.50,927.50
1647,1043.51,3155.17,150.07,1165.00,935.75
1656,1044.70,3166.08,0.59,1160.00,955.50
1665,1045.88,3176.93,112.47,1151.00,946.00
1674,1047.07,3187.73,157.85,1126.75,928.00
1683,1048.24,3198.48,200.32,1136.75,947.25
1692,1049.42,3209.17,79.96,1123.25,950.75
1701,1050.59,3219.81,361.85,1115.75,932.50
1710,1051.76,3230.40,348.32,1125.00,947.00
1719,1052.93,3240.94,292.10,1090.25,926.00
1728,1054.10,3251.42,412.98,1110.50,946.75
1737,1055.26,3261.86,603.66,1112.50,945.50
1746,1056.41,3272.24,399.81,1105.75,957.75
1755,1057.57,3282.57,435.61,1102.75,960.75
1764,1058.72,3292.85,500.72,1081.25,944.00
1773,1059.87,3303.07,585.14,1075.50,940.75
1782,1061.01,3313.25,554.77,1069.25,940.50
1791,1062.15,3323.38,523.51,1053.75,936.00
1800,1063.29,3333.45,419.50,1045.75,937.75
1809,1064.42,3343.48,222.31,1041.00,949.00
1818,1065.55,3353.45,309.79,1032.75,939.25
1827,1066.68,3363.38,463.13,1033.00,939.75
1836,1067.81,3373.25,513.23,1010.25,919.00
1845,1068.93,3383.08,359.01,1008.00,927.00
1854,1070.05,3392.85,413.32,1033.75,956.25
1863,1071.16,3402.58,569.06,1014.75,936.25
1872,1072.27,3412.26,578.18,1016.00,940.75
1881,1073.38,3421.89,491.46,985.25,915.00
1890,1074.49,3431.47,477.86,993.25,928.00
1899,1075.59,3441.00,359.65,994.25,937.50
1908,1076.69,3450.49,576.29,1005.50,944.00
1917,1077.78,3459.93,277.70,977.50,928.25
1926,1078.87,3469.32,263.11,989.00,940.75
1935,1079.96,3478.66,524.84,981.00,931.50
1944,1081.05,3487.95,180.55,991.00,950.25
1953,1082.13,3497.20,113.54,979.00,942.75
1962,1083.21,3506.40,901.09,978.00,929.50
1971,1084.28,3515.56,886.05,998.25,951.00
1980,1085.36,3524.67,425.87,977.75,940.50
1989,1086.42,3533.73,380.83,963.50,929.50
1998,1087.49,3542.74,304.49,965.75,935.00
2007,1088.55,3551.71,422.03,957.00,923.50
2016,1089.61,3560.64,471.61,954.75,924.75
2025,1090.67,3569.52,262.09,956.00,930.75
2034,1091.72,3578.35,110.49,933.75,911.00
2043,1092.77,3587.14,89.89,930.25,909.75
2047,1093.23,3591.03,43.43,924.50,902.00