File: plugins/Raman/MatchingLibrary/785X/sucrose.csv
ENLIGHTEN Version,4.1.22
Measurement ID,20250220-201351-223302-WP-01977
Serial Number,WP-01977
Model,WP-785X-F13-R-ILC
Detector,S16011-1106
Label,sucrose
Declared Match,
Declared Score,0
Scan Averaging,1
Boxcar,0
Technique,Raman
Baseline Correction Algo,AirPLS
ROI Pixel Start,47
ROI Pixel End,2047
ROI Start Line,0
ROI Stop Line,63
CCD C4,1.38617e-12
Slit Width,25
Cropped,True
Interpolated,False
Wavenumber Correction,-0.100481
Raman Intensity Corrected,True
Deconvolved,True
Region,
High Gain Mode,False
Laser Power mW,
Electrical Dark Correction,False
Battery %,
Device ID,<DeviceID USB:0x24aa:0x1000:0:1>
FW Version,10.0.0.10
FPGA Version,035-001
BLE Version,
Prefix,enlighten
Suffix,
Preset,
Auto-Raman,True
Session Count,0
Plugin Name,
Integration Time,1659
Timestamp,2025-02-20 20:13:51.2233
Note,
Temperature,0
CCD C0,793.274
CCD C1,0.153259
CCD C2,1.40788e-05
CCD C3,-1.132e-08
CCD Offset,0
CCD Gain,1.9
CCD Offset Odd,0
CCD Gain Odd,1.9
Laser Wavelength,785.032
Laser Enable,False
Laser Power %,0
Laser Temperature,0
Pixel Count,2048

Pixel,Wavelength,Wavenumber,Processed,Raw,Dark
0,793.27,132.25,NA,1378.00,1205.00
9,794.65,154.15,NA,1469.00,1281.00
18,796.04,176.01,NA,1551.00,1332.00
27,797.42,197.83,NA,1626.00,1332.00
36,798.81,219.60,NA,1718.00,1277.00
45,800.20,241.33,NA,14889.00,1311.00
54,801.59,263.02,255.11,15743.00,1395.00
63,802.98,284.66,2214.19,17710.00,1368.00
72,804.38,306.26,2265.10,18661.00,1332.00
81,805.77,327.82,193.06,16265.00,1319.00
90,807.17,349.32,954.81,17287.00,1327.00
99,808.57,370.78,2139.72,19168.00,1355.00
108,809.98,392.19,2719.83,21311.00,1290.00
117,811.38,413.56,4197.67,23567.00,1345.00
126,812.79,434.87,2250.77,20440.00,1292.00
135,814.19,456.14,305.89,17496.00,1264.00
144,815.60,477.36,600.54,17461.00,1347.00
153,817.01,498.52,1897.67,19136.00,1351.00
162,818.42,519.64,4121.47,23460.00,1357.00
171,819.84,540.70,8538.17,29625.00,1287.00
180,821.25,561.71,3954.70,22817.00,1260.00
189,822.67,582.67,3644.95,20970.00,1275.00
198,824.09,603.57,9.33,15774.00,1262.00
207,825.50,624.43,680.38,16806.00,1342.00
216,826.92,645.22,5585.67,23601.00,1306.00
225,828.34,665.97,0.00,14595.00,1247.00
234,829.77,686.66,569.19,15844.00,1640.00
243,831.19,707.29,837.73,15698.00,1382.00
252,832.61,727.87,751.59,15512.00,1376.00
261,834.04,748.39,1236.98,15838.00,1287.00
270,835.47,768.85,19.55,13393.00,1241.00
279,836.89,789.26,0.00,13063.00,1298.00
288,838.32,809.61,0.00,12928.00,1302.00
297,839.75,829.90,501.87,14130.00,1376.00
306,841.18,850.14,19476.83,39926.00,1345.00
315,842.61,870.31,3658.08,18991.00,1309.00
324,844.04,890.43,17.68,13503.00,1252.00
333,845.47,910.49,4341.09,20231.00,1296.00
342,846.90,930.49,1872.52,17418.00,1319.00
351,848.33,950.43,1214.03,15648.00,1294.00
360,849.77,970.31,0.00,12926.00,1281.00
369,851.20,990.12,1212.42,15343.00,1302.00
378,852.63,1009.88,3624.50,20083.00,1387.00
387,854.07,1029.58,2083.84,19728.00,1260.00
396,855.50,1049.21,4802.33,23946.00,1283.00
405,856.94,1068.79,2838.36,20385.00,1309.00
414,858.37,1088.30,5353.97,24383.00,1243.00
423,859.81,1107.75,4624.30,24332.00,1351.00
432,861.25,1127.14,13202.05,37008.00,1353.00
441,862.68,1146.46,178.35,18004.00,1260.00
450,864.12,1165.73,3790.41,23305.00,1289.00
459,865.55,1184.93,0.00,16309.00,1188.00
468,866.99,1204.06,1185.50,19825.00,1285.00
477,868.43,1223.14,378.14,20343.00,1264.00
486,869.86,1242.15,6213.81,29885.00,1283.00
495,871.30,1261.10,2567.74,25448.00,1260.00
504,872.73,1279.98,1939.27,25873.00,1281.00
513,874.17,1298.80,1005.13,25594.00,1271.00
522,875.60,1317.55,2835.52,29053.00,1300.00
531,877.04,1336.24,4562.30,32322.00,1232.00
540,878.47,1354.87,7016.99,36282.00,1262.00
549,879.91,1373.43,7729.78,37148.00,1309.00
558,881.34,1391.93,3924.05,31244.00,1192.00
567,882.78,1410.36,4280.00,31656.00,1235.00
576,884.21,1428.73,4471.88,32303.00,1313.00
585,885.64,1447.03,3411.50,31138.00,1235.00
594,887.08,1465.26,10446.03,40592.00,1327.00
603,888.51,1483.43,903.78,27498.00,1292.00
612,889.94,1501.54,194.58,25930.00,1201.00
621,891.37,1519.58,142.67,25306.00,1156.00
630,892.80,1537.56,252.40,24947.00,1222.00
639,894.23,1555.46,0.00,23958.00,1228.00
648,895.66,1573.31,89.90,23542.00,1235.00
657,897.09,1591.09,30.13,22853.00,1211.00
666,898.52,1608.80,348.30,22674.00,1205.00
675,899.95,1626.44,644.13,22483.00,1230.00
684,901.37,1644.02,781.77,22035.00,1249.00
693,902.80,1661.54,968.40,21763.00,1328.00
702,904.22,1678.99,857.78,20842.00,1199.00
711,905.64,1696.37,905.10,20332.00,1279.00
720,907.07,1713.68,680.52,19402.00,1224.00
729,908.49,1730.93,416.37,18468.00,1241.00
738,909.91,1748.12,322.91,17750.00,1252.00
747,911.33,1765.23,0.64,16710.00,1215.00
756,912.75,1782.29,102.14,16298.00,1199.00
765,914.16,1799.27,234.99,15846.00,1218.00
774,915.58,1816.19,240.51,15265.00,1203.00
783,916.99,1833.04,412.76,14971.00,1251.00
792,918.41,1849.83,629.74,14633.00,1266.00
801,919.82,1866.55,676.87,14145.00,1260.00
810,921.23,1883.20,958.99,13902.00,1273.00
819,922.64,1899.79,817.70,13133.00,1194.00
828,924.05,1916.31,893.72,12700.00,1226.00
837,925.46,1932.77,1011.67,12263.00,1222.00
846,926.86,1949.16,763.94,11493.00,1243.00
855,928.27,1965.48,719.93,10900.00,1220.00
864,929.67,1981.74,751.85,10412.00,1237.00
873,931.07,1997.93,400.50,9570.00,1266.00
882,932.47,2014.06,301.85,8924.00,1215.00
891,933.87,2030.12,160.29,8334.00,1266.00
900,935.27,2046.11,0.00,7772.00,1340.00
909,936.66,2062.04,38.40,7343.00,1304.00
918,938.06,2077.91,0.00,6771.00,1226.00
927,939.45,2093.70,0.00,6407.00,1226.00
936,940.84,2109.44,45.39,6137.00,1232.00
945,942.23,2125.10,27.42,5873.00,1271.00
954,943.62,2140.70,56.59,5625.00,1270.00
963,945.00,2156.24,0.00,5232.00,1215.00
972,946.39,2171.71,14.64,5129.00,1226.00
981,947.77,2187.12,21.05,4916.00,1177.00
990,949.15,2202.46,81.53,4882.00,1251.00
999,950.53,2217.73,92.64,4732.00,1192.00
1008,951.90,2232.94,35.50,4571.00,1199.00
1017,953.28,2248.09,159.88,4634.00,1289.00
1026,954.65,2263.17,33.18,4349.00,1205.00
1035,956.02,2278.19,0.06,4237.00,1241.00
1044,957.39,2293.14,0.00,4142.00,1249.00
1053,958.75,2308.03,0.00,4013.00,1218.00
1062,960.12,2322.85,101.67,4009.00,1218.00
1071,961.48,2337.61,125.93,3956.00,1220.00
1080,962.84,2352.31,54.70,3832.00,1243.00
1089,964.20,2366.94,26.81,3758.00,1273.00
1098,965.56,2381.51,161.83,3760.00,1256.00
1107,966.91,2396.01,132.65,3665.00,1249.00
1116,968.26,2410.45,197.29,3635.00,1249.00
1125,969.61,2424.83,160.05,3517.00,1222.00
1134,970.96,2439.14,194.33,3470.00,1220.00
1143,972.30,2453.39,149.49,3388.00,1233.00
1152,973.65,2467.58,330.56,3415.00,1232.00
1161,974.99,2481.70,359.11,3343.00,1205.00
1170,976.33,2495.76,271.43,3265.00,1252.00
1179,977.66,2509.76,68.66,3113.00,1252.00
1188,979.00,2523.70,172.34,3103.00,1260.00
1197,980.33,2537.57,118.47,2959.00,1203.00
1206,981.66,2551.38,43.18,2974.00,1292.00
1215,982.98,2565.13,10.77,2828.00,1233.00
1224,984.31,2578.82,0.00,2779.00,1226.00
1233,985.63,2592.44,18.25,2822.00,1222.00
1242,986.95,2606.01,23.47,2912.00,1311.00
1251,988.27,2619.51,185.85,3022.00,1315.00
1260,989.58,2632.95,449.89,3107.00,1302.00
1269,990.89,2646.33,79.79,2993.00,1374.00
1278,992.20,2659.65,54.12,2900.00,1281.00
1287,993.51,2672.91,209.99,2965.00,1287.00
1296,994.81,2686.10,425.02,3084.00,1304.00
1305,996.12,2699.24,299.11,3028.00,1306.00
1314,997.41,2712.32,776.86,3233.00,1311.00
1323,998.71,2725.33,1820.77,3504.00,1264.00
1332,1000.01,2738.29,772.60,3215.00,1330.00
1341,1001.30,2751.18,330.66,3105.00,1414.00
1350,1002.59,2764.02,31.16,2908.00,1340.00
1359,1003.87,2776.79,80.80,2845.00,1283.00
1368,1005.15,2789.51,0.00,2878.00,1317.00
1377,1006.43,2802.17,54.62,2980.00,1294.00
1386,1007.71,2814.77,195.81,3081.00,1237.00
1395,1008.99,2827.30,128.15,3134.00,1232.00
1404,1010.26,2839.78,0.00,3282.00,1321.00
1413,1011.53,2852.21,0.00,3407.00,1268.00
1422,1012.80,2864.57,4.22,3927.00,1382.00
1431,1014.06,2876.87,3374.76,4897.00,1235.00
1440,1015.32,2889.12,14025.28,7719.00,1332.00
1449,1016.58,2901.31,20697.33,9412.00,1296.00
1458,1017.83,2913.44,43485.82,13021.00,1260.00
1467,1019.09,2925.51,23911.74,9448.00,1300.00
1476,1020.33,2937.53,28332.12,10173.00,1363.00
1485,1021.58,2949.49,16485.76,7677.00,1328.00
1494,1022.82,2961.39,13380.69,6166.00,1292.00
1503,1024.07,2973.23,13921.25,6131.00,1412.00
1512,1025.30,2985.02,17194.77,6342.00,1262.00
1521,1026.54,2996.75,14994.47,5708.00,1317.00
1530,1027.77,3008.43,2969.17,3774.00,1308.00
1539,1029.00,3020.05,1839.53,3215.00,1258.00
1548,1030.22,3031.61,0.00,2331.00,1287.00
1557,1031.45,3043.12,0.00,2194.00,1304.00
1566,1032.67,3054.57,0.00,2031.00,1264.00
1575,1033.88,3065.97,0.00,1915.00,1182.00
1584,1035.10,3077.31,32.11,2019.00,1300.00
1593,1036.31,3088.60,33.59,2023.00,1323.00
1602,1037.52,3099.83,131.32,1976.00,1270.00
1611,1038.72,3111.00,79.99,2052.00,1342.00
1620,1039.92,3122.13,0.00,2052.00,1342.00
1629,1041.12,3133.20,0.00,2118.00,1363.00
1638,1042.32,3144.21,73.83,2107.00,1281.00
1647,1043.51,3155.17,130.69,2230.00,1327.00
1656,1044.70,3166.08,246.81,2359.00,1391.00
1665,1045.88,3176.93,210.16,2414.00,1383.00
1674,1047.07,3187.73,634.20,2388.00,1279.00
1683,1048.24,3198.48,2813.45,2640.00,1364.00
1692,1049.42,3209.17,4460.27,2716.00,1336.00
1701,1050.59,3219.81,5506.55,2737.00,1306.00
1710,1051.76,3230.40,7203.42,2919.00,1385.00
1719,1052.93,3240.94,8413.86,2862.00,1273.00
1728,1054.10,3251.42,9892.45,2969.00,1338.00
1737,1055.26,3261.86,10468.81,2986.00,1357.00
1746,1056.41,3272.24,10340.43,2959.00,1397.00
1755,1057.57,3282.57,10717.32,2938.00,1406.00
1764,1058.72,3292.85,9922.35,2794.00,1361.00
1773,1059.87,3303.07,11113.24,2794.00,1334.00
1782,1061.01,3313.25,11316.11,2737.00,1325.00
1791,1062.15,3323.38,10794.36,2646.00,1304.00
1800,1063.29,3333.45,11258.64,2616.00,1302.00
1809,1064.42,3343.48,11822.49,2612.00,1325.00
1818,1065.55,3353.45,9429.70,2464.00,1309.00
1827,1066.68,3363.38,10086.11,2469.00,1336.00
1836,1067.81,3373.25,8868.49,2295.00,1251.00
1845,1068.93,3383.08,11302.54,2323.00,1235.00
1854,1070.05,3392.85,9327.29,2397.00,1418.00
1863,1071.16,3402.58,7345.66,2196.00,1313.00
1872,1072.27,3412.26,8988.91,2209.00,1311.00
1881,1073.38,3421.89,6217.19,2021.00,1243.00
1890,1074.49,3431.47,5412.50,2012.00,1281.00
1899,1075.59,3441.00,4717.66,1976.00,1292.00
1908,1076.69,3450.49,3228.68,1966.00,1355.00
1917,1077.78,3459.93,2123.39,1818.00,1251.00
1926,1078.87,3469.32,4095.73,1906.00,1321.00
1935,1079.96,3478.66,970.47,1763.00,1287.00
1944,1081.05,3487.95,1051.14,1807.00,1359.00
1953,1082.13,3497.20,2221.82,1756.00,1317.00
1962,1083.21,3506.40,1901.65,1668.00,1266.00
1971,1084.28,3515.56,716.25,1740.00,1393.00
1980,1085.36,3524.67,542.69,1609.00,1294.00
1989,1086.42,3533.73,822.91,1552.00,1256.00
1998,1087.49,3542.74,2684.35,1617.00,1300.00
2007,1088.55,3551.71,1135.01,1526.00,1260.00
2016,1089.61,3560.64,5782.47,1581.00,1251.00
2025,1090.67,3569.52,8157.42,1619.00,1275.00
2034,1091.72,3578.35,2467.80,1425.00,1169.00
2043,1092.77,3587.14,732.64,1397.00,1190.00
2047,1093.23,3591.03,44.23,1332.00,1133.00