File: plugins/Raman/MatchingLibrary/785X/tert-butyl methyl ether.csv
ENLIGHTEN Version,4.1.22
Measurement ID,20250220-195655-717989-WP-01977
Serial Number,WP-01977
Model,WP-785X-F13-R-ILC
Detector,S16011-1106
Label,tert-butyl methyl ether
Declared Match,
Declared Score,0
Scan Averaging,7
Boxcar,0
Technique,Raman
Baseline Correction Algo,AirPLS
ROI Pixel Start,47
ROI Pixel End,2047
ROI Start Line,0
ROI Stop Line,63
CCD C4,1.38617e-12
Slit Width,25
Cropped,True
Interpolated,False
Wavenumber Correction,-0.100481
Raman Intensity Corrected,True
Deconvolved,True
Region,
High Gain Mode,False
Laser Power mW,
Electrical Dark Correction,False
Battery %,
Device ID,<DeviceID USB:0x24aa:0x1000:0:1>
FW Version,10.0.0.10
FPGA Version,035-001
BLE Version,
Prefix,enlighten
Suffix,
Preset,
Auto-Raman,True
Session Count,0
Plugin Name,
Integration Time,165
Timestamp,2025-02-20 19:56:55.718
Note,
Temperature,0
CCD C0,793.274
CCD C1,0.153259
CCD C2,1.40788e-05
CCD C3,-1.132e-08
CCD Offset,0
CCD Gain,1.9
CCD Offset Odd,0
CCD Gain Odd,1.9
Laser Wavelength,785.032
Laser Enable,False
Laser Power %,0
Laser Temperature,0
Pixel Count,2048

Pixel,Wavelength,Wavenumber,Processed,Raw,Dark
0,793.27,132.25,NA,890.43,880.57
9,794.65,154.15,NA,899.43,882.29
18,796.04,176.01,NA,906.43,886.29
27,797.42,197.83,NA,910.57,891.00
36,798.81,219.60,NA,913.43,888.00
45,800.20,241.33,NA,1623.29,885.71
54,801.59,263.02,400.77,2191.71,897.86
63,802.98,284.66,1084.23,3015.86,894.86
72,804.38,306.26,384.86,2154.00,893.71
81,805.77,327.82,304.84,2031.86,888.29
90,807.17,349.32,1689.05,3733.14,891.57
99,808.57,370.78,1783.51,3870.57,892.86
108,809.98,392.19,342.42,2019.29,891.57
117,811.38,413.56,542.08,2180.29,891.29
126,812.79,434.87,168.00,1681.14,887.71
135,814.19,456.14,603.64,2242.57,882.43
144,815.60,477.36,272.22,1783.29,889.71
153,817.01,498.52,766.66,2700.43,892.57
162,818.42,519.64,888.41,2871.29,895.14
171,819.84,540.70,79.79,1353.86,884.00
180,821.25,561.71,13.89,1192.14,879.71
189,822.67,582.67,0.00,1125.29,884.00
198,824.09,603.57,0.00,1099.00,883.00
207,825.50,624.43,0.00,1111.43,888.29
216,826.92,645.22,0.00,1116.71,886.86
225,828.34,665.97,25.40,1189.00,878.29
234,829.77,686.66,185.26,1498.71,891.29
243,831.19,707.29,614.06,2414.29,892.57
252,832.61,727.87,30299.91,41744.14,895.14
261,834.04,748.39,321.18,1818.86,886.43
270,835.47,768.85,20.10,1310.57,881.86
279,836.89,789.26,0.01,1299.14,888.29
288,838.32,809.61,93.35,1470.43,886.57
297,839.75,829.90,347.30,1950.43,896.71
306,841.18,850.14,3847.36,7207.29,888.29
315,842.61,870.31,578.47,2413.86,889.29
324,844.04,890.43,611.81,2453.86,885.71
333,845.47,910.49,2721.68,5879.14,887.29
342,846.90,930.49,896.62,3009.14,887.71
351,848.33,950.43,175.00,1656.29,884.00
360,849.77,970.31,0.17,1363.71,884.57
369,851.20,990.12,17.58,1426.57,886.86
378,852.63,1009.88,367.79,2125.14,893.43
387,854.07,1029.58,383.82,2153.00,885.29
396,855.50,1049.21,0.17,1463.00,884.43
405,856.94,1068.79,144.93,1779.29,886.43
414,858.37,1088.30,1785.78,4180.00,881.00
423,859.81,1107.75,105.81,1758.57,891.71
432,861.25,1127.14,0.00,1581.86,892.86
441,862.68,1146.46,217.13,2037.86,887.86
450,864.12,1165.73,573.67,2767.43,886.00
459,865.55,1184.93,894.90,3319.14,875.43
468,866.99,1204.06,1123.22,3556.57,884.57
477,868.43,1223.14,1065.89,3744.29,883.29
486,869.86,1242.15,1434.89,4371.71,888.00
495,871.30,1261.10,1884.45,4919.00,884.00
504,872.73,1279.98,554.53,3016.57,887.14
513,874.17,1298.80,111.93,2289.43,885.57
522,875.60,1317.55,14.41,2180.71,885.14
531,877.04,1336.24,0.00,2186.43,881.57
540,878.47,1354.87,136.64,2456.71,883.14
549,879.91,1373.43,255.85,2657.86,884.43
558,881.34,1391.93,335.63,2758.57,879.14
567,882.78,1410.36,645.62,3265.43,881.57
576,884.21,1428.73,2068.27,5751.14,890.14
585,885.64,1447.03,6841.76,12533.57,881.57
594,887.08,1465.26,5292.21,10238.00,889.86
603,888.51,1483.43,1789.37,5095.71,888.00
612,889.94,1501.54,508.12,3042.86,877.57
621,891.37,1519.58,157.37,2491.43,873.57
630,892.80,1537.56,26.28,2290.57,879.14
639,894.23,1555.46,0.00,2175.14,880.29
648,895.66,1573.31,9.38,2118.57,881.00
657,897.09,1591.09,0.00,2031.86,878.00
666,898.52,1608.80,34.88,2035.14,878.86
675,899.95,1626.44,41.97,2003.57,882.00
684,901.37,1644.02,67.45,1989.86,883.71
693,902.80,1661.54,76.79,1960.86,891.57
702,904.22,1678.99,82.55,1910.29,876.71
711,905.64,1696.37,103.19,1900.00,886.14
720,907.07,1713.68,109.95,1848.29,876.71
729,908.49,1730.93,76.06,1761.71,884.29
738,909.91,1748.12,34.64,1660.00,882.57
747,911.33,1765.23,9.22,1581.43,876.43
756,912.75,1782.29,0.13,1522.29,875.57
765,914.16,1799.27,4.61,1489.71,877.57
774,915.58,1816.19,0.00,1445.14,875.86
783,916.99,1833.04,15.63,1446.00,883.29
792,918.41,1849.83,17.30,1421.43,883.57
801,919.82,1866.55,37.46,1411.29,879.71
810,921.23,1883.20,32.48,1383.86,882.29
819,922.64,1899.79,42.29,1354.29,874.71
828,924.05,1916.31,38.38,1333.71,881.43
837,925.46,1932.77,60.07,1326.86,880.71
846,926.86,1949.16,34.83,1273.86,881.57
855,928.27,1965.48,31.52,1237.57,876.71
864,929.67,1981.74,17.52,1199.71,879.71
873,931.07,1997.93,10.54,1171.14,883.29
882,932.47,2014.06,2.17,1135.29,878.57
891,933.87,2030.12,12.09,1127.00,882.43
900,935.27,2046.11,60.04,1163.14,891.00
909,936.66,2062.04,19.15,1101.00,890.43
918,938.06,2077.91,0.00,1048.00,882.29
927,939.45,2093.70,0.00,1027.71,880.57
936,940.84,2109.44,8.43,1032.43,881.43
945,942.23,2125.10,6.72,1027.00,882.14
954,943.62,2140.70,41.13,1047.86,882.86
963,945.00,2156.24,65.69,1055.57,876.57
972,946.39,2171.71,43.20,1035.14,881.57
981,947.77,2187.12,15.91,993.86,876.00
990,949.15,2202.46,6.30,983.29,883.57
999,950.53,2217.73,0.00,965.29,876.71
1008,951.90,2232.94,7.52,977.57,879.00
1017,953.28,2248.09,11.60,992.00,889.43
1026,954.65,2263.17,23.37,991.29,879.43
1035,956.02,2278.19,53.23,1020.57,880.57
1044,957.39,2293.14,90.76,1050.43,883.14
1053,958.75,2308.03,69.98,1029.57,879.14
1062,960.12,2322.85,34.18,1001.43,879.14
1071,961.48,2337.61,12.33,987.71,880.43
1080,962.84,2352.31,32.72,1005.14,882.71
1089,964.20,2366.94,93.06,1047.00,881.29
1098,965.56,2381.51,169.15,1095.71,882.14
1107,966.91,2396.01,88.48,1046.57,882.57
1116,968.26,2410.45,52.70,1014.14,881.43
1125,969.61,2424.83,15.57,986.14,876.57
1134,970.96,2439.14,36.45,1000.00,879.29
1143,972.30,2453.39,63.08,1015.71,878.43
1152,973.65,2467.58,64.96,1021.29,884.71
1161,974.99,2481.70,49.37,1008.14,881.86
1170,976.33,2495.76,20.33,989.57,880.57
1179,977.66,2509.76,0.00,974.00,880.14
1188,979.00,2523.70,4.85,986.71,887.71
1197,980.33,2537.57,7.45,979.14,877.14
1206,981.66,2551.38,0.94,991.86,888.86
1215,982.98,2565.13,54.74,1012.43,876.86
1224,984.31,2578.82,84.38,1037.00,878.29
1233,985.63,2592.44,161.87,1081.57,880.71
1242,986.95,2606.01,144.77,1083.14,890.29
1251,988.27,2619.51,76.30,1053.71,890.14
1260,989.58,2632.95,63.72,1042.71,884.29
1269,990.89,2646.33,0.00,1023.29,893.43
1278,992.20,2659.65,0.00,1013.57,884.14
1287,993.51,2672.91,6.69,1045.86,887.71
1296,994.81,2686.10,85.70,1103.14,889.00
1305,996.12,2699.24,361.48,1273.86,889.43
1314,997.41,2712.32,2362.11,1937.43,891.57
1323,998.71,2725.33,645.05,1385.29,885.43
1332,1000.01,2738.29,75.58,1168.00,893.71
1341,1001.30,2751.18,0.00,1150.57,903.29
1350,1002.59,2764.02,755.92,1443.00,893.29
1359,1003.87,2776.79,154.99,1296.71,888.86
1368,1005.15,2789.51,0.00,1204.14,888.00
1377,1006.43,2802.17,53.14,1355.29,889.86
1386,1007.71,2814.77,2456.94,2213.43,883.43
1395,1008.99,2827.30,9743.88,4054.57,887.71
1404,1010.26,2839.78,3048.87,2374.86,889.29
1413,1011.53,2852.21,2850.54,2173.86,885.00
1422,1012.80,2864.57,4811.78,2699.57,897.14
1431,1014.06,2876.87,7940.17,3507.71,883.71
1440,1015.32,2889.12,13195.26,4761.14,893.00
1449,1016.58,2901.31,15747.05,5455.00,889.14
1458,1017.83,2913.44,24651.65,7267.29,883.71
1467,1019.09,2925.51,29431.25,8220.00,894.14
1476,1020.33,2937.53,25582.02,7158.14,895.71
1485,1021.58,2949.49,18436.83,5444.14,896.00
1494,1022.82,2961.39,16917.69,5004.29,887.14
1503,1024.07,2973.23,23625.83,6097.71,898.14
1512,1025.30,2985.02,21206.73,5426.57,885.14
1521,1026.54,2996.75,9425.88,3162.00,892.29
1530,1027.77,3008.43,4416.97,2120.71,886.86
1539,1029.00,3020.05,1740.16,1601.86,883.71
1548,1030.22,3031.61,299.81,1344.86,887.43
1557,1031.45,3043.12,0.00,1216.86,892.00
1566,1032.67,3054.57,0.00,1136.14,886.29
1575,1033.88,3065.97,0.00,1071.43,872.57
1584,1035.10,3077.31,0.16,1048.71,889.71
1593,1036.31,3088.60,35.89,1021.29,887.29
1602,1037.52,3099.83,0.00,996.43,887.00
1611,1038.72,3111.00,20.73,993.00,892.14
1620,1039.92,3122.13,12.49,987.43,892.86
1629,1041.12,3133.20,22.32,983.71,892.57
1638,1042.32,3144.21,60.54,978.71,885.71
1647,1043.51,3155.17,77.75,981.00,890.57
1656,1044.70,3166.08,228.14,995.43,894.14
1665,1045.88,3176.93,263.72,992.00,893.43
1674,1047.07,3187.73,344.18,987.57,885.14
1683,1048.24,3198.48,344.45,993.00,894.00
1692,1049.42,3209.17,473.48,998.00,894.00
1701,1050.59,3219.81,463.53,991.86,891.43
1710,1051.76,3230.40,610.05,998.00,892.43
1719,1052.93,3240.94,604.67,985.29,884.29
1728,1054.10,3251.42,653.04,989.86,889.86
1737,1055.26,3261.86,611.31,987.57,894.71
1746,1056.41,3272.24,627.51,987.29,897.86
1755,1057.57,3282.57,598.49,979.86,897.29
1764,1058.72,3292.85,538.82,969.71,895.86
1773,1059.87,3303.07,523.78,961.71,891.43
1782,1061.01,3313.25,485.03,955.71,890.00
1791,1062.15,3323.38,624.99,956.29,888.29
1800,1063.29,3333.45,441.56,945.14,888.71
1809,1064.42,3343.48,469.00,943.00,888.00
1818,1065.55,3353.45,387.02,939.43,890.29
1827,1066.68,3363.38,383.31,939.14,893.29
1836,1067.81,3373.25,488.90,929.00,880.57
1845,1068.93,3383.08,591.14,928.57,879.71
1854,1070.05,3392.85,474.09,944.71,900.29
1863,1071.16,3402.58,386.94,928.14,890.57
1872,1072.27,3412.26,356.49,924.86,890.00
1881,1073.38,3421.89,399.81,914.14,878.57
1890,1074.49,3431.47,721.62,921.71,880.86
1899,1075.59,3441.00,320.70,915.57,886.00
1908,1076.69,3450.49,323.04,921.86,894.57
1917,1077.78,3459.93,437.44,912.43,883.29
1926,1078.87,3469.32,234.25,915.71,893.14
1935,1079.96,3478.66,190.87,908.71,889.00
1944,1081.05,3487.95,385.05,914.71,890.71
1953,1082.13,3497.20,521.67,916.86,891.43
1962,1083.21,3506.40,219.27,907.57,889.00
1971,1084.28,3515.56,446.98,915.00,895.14
1980,1085.36,3524.67,149.04,903.29,888.14
1989,1086.42,3533.73,519.50,900.86,879.86
1998,1087.49,3542.74,439.58,905.29,887.14
2007,1088.55,3551.71,119.30,896.86,884.86
2016,1089.61,3560.64,474.12,897.29,879.71
2025,1090.67,3569.52,407.73,899.57,884.71
2034,1091.72,3578.35,104.87,887.71,877.29
2043,1092.77,3587.14,366.22,890.29,877.43
2047,1093.23,3591.03,4.47,880.14,871.57