File: plugins/Raman/MatchingLibrary/785X/thiamine HCl.csv
ENLIGHTEN Version,4.1.22
Measurement ID,20250220-200904-961908-WP-01977
Serial Number,WP-01977
Model,WP-785X-F13-R-ILC
Detector,S16011-1106
Label,thiamine HCl
Declared Match,
Declared Score,0
Scan Averaging,2
Boxcar,0
Technique,Raman
Baseline Correction Algo,AirPLS
ROI Pixel Start,47
ROI Pixel End,2047
ROI Start Line,0
ROI Stop Line,63
CCD C4,1.38617e-12
Slit Width,25
Cropped,True
Interpolated,False
Wavenumber Correction,-0.100481
Raman Intensity Corrected,True
Deconvolved,True
Region,
High Gain Mode,False
Laser Power mW,
Electrical Dark Correction,False
Battery %,
Device ID,<DeviceID USB:0x24aa:0x1000:0:1>
FW Version,10.0.0.10
FPGA Version,035-001
BLE Version,
Prefix,enlighten
Suffix,
Preset,
Auto-Raman,True
Session Count,0
Plugin Name,
Integration Time,712
Timestamp,2025-02-20 20:09:04.961908
Note,
Temperature,0
CCD C0,793.274
CCD C1,0.153259
CCD C2,1.40788e-05
CCD C3,-1.132e-08
CCD Offset,0
CCD Gain,1.9
CCD Offset Odd,0
CCD Gain Odd,1.9
Laser Wavelength,785.032
Laser Enable,False
Laser Power %,0
Laser Temperature,0
Pixel Count,2048

Pixel,Wavelength,Wavenumber,Processed,Raw,Dark
0,793.27,132.25,NA,1090.00,1002.00
9,794.65,154.15,NA,1117.50,1022.00
18,796.04,176.01,NA,1154.00,1051.50
27,797.42,197.83,NA,1186.50,1057.00
36,798.81,219.60,NA,1212.50,1026.50
45,800.20,241.33,NA,8119.50,1037.00
54,801.59,263.02,0.48,7430.00,1077.00
63,802.98,284.66,1041.97,8344.00,1080.50
72,804.38,306.26,916.23,8064.00,1056.00
81,805.77,327.82,1264.30,8520.00,1048.00
90,807.17,349.32,8328.99,17119.50,1057.00
99,808.57,370.78,0.27,6443.50,1073.50
108,809.98,392.19,0.04,6345.00,1035.00
117,811.38,413.56,2182.25,9220.00,1052.00
126,812.79,434.87,0.12,6521.00,1044.00
135,814.19,456.14,844.59,7848.50,1025.50
144,815.60,477.36,87.19,6843.50,1055.00
153,817.01,498.52,82.04,7197.50,1066.50
162,818.42,519.64,4601.80,12676.50,1056.00
171,819.84,540.70,7388.76,17143.50,1035.00
180,821.25,561.71,1908.29,10576.50,1013.50
189,822.67,582.67,11329.87,22181.00,1040.00
198,824.09,603.57,1932.24,9758.50,1018.00
207,825.50,624.43,1784.91,10571.50,1066.50
216,826.92,645.22,3353.00,11437.00,1033.50
225,828.34,665.97,4206.21,12368.00,1020.00
234,829.77,686.66,2497.19,10485.50,1128.00
243,831.19,707.29,263.74,6820.00,1069.00
252,832.61,727.87,0.00,5986.50,1063.50
261,834.04,748.39,20140.39,37153.50,1033.00
270,835.47,768.85,2164.15,10319.50,1019.00
279,836.89,789.26,292.85,6944.00,1028.50
288,838.32,809.61,2729.80,10868.50,1046.50
297,839.75,829.90,1039.46,8236.00,1084.50
306,841.18,850.14,0.00,5719.50,1050.50
315,842.61,870.31,4154.47,11898.00,1046.00
324,844.04,890.43,402.72,6973.50,1025.50
333,845.47,910.49,1160.99,8179.00,1033.00
342,846.90,930.49,4156.78,13233.50,1052.00
351,848.33,950.43,4607.71,13709.00,1039.00
360,849.77,970.31,1001.84,7858.00,1034.00
369,851.20,990.12,918.50,7663.50,1052.00
378,852.63,1009.88,294.47,6905.50,1066.50
387,854.07,1029.58,514.66,6974.50,1027.50
396,855.50,1049.21,1458.30,8718.50,1038.00
405,856.94,1068.79,1292.35,8718.00,1036.00
414,858.37,1088.30,2020.12,9523.00,1014.00
423,859.81,1107.75,135.24,6602.50,1053.00
432,861.25,1127.14,0.00,6192.00,1048.00
441,862.68,1146.46,0.00,6358.50,1020.00
450,864.12,1165.73,18.13,7390.00,1038.00
459,865.55,1184.93,1887.68,10962.00,1004.00
468,866.99,1204.06,446.03,9575.00,1037.00
477,868.43,1223.14,3848.03,15313.00,1026.50
486,869.86,1242.15,2973.41,16290.00,1030.50
495,871.30,1261.10,350.53,13077.00,1024.00
504,872.73,1279.98,2954.82,16756.00,1033.50
513,874.17,1298.80,383.20,13514.50,1035.00
522,875.60,1317.55,3371.18,18926.50,1039.00
531,877.04,1336.24,3378.93,18764.00,1012.00
540,878.47,1354.87,2843.19,18570.00,1030.50
549,879.91,1373.43,2702.31,20046.00,1039.00
558,881.34,1391.93,5386.26,24385.00,1001.00
567,882.78,1410.36,820.39,16992.50,1013.00
576,884.21,1428.73,2374.66,19076.00,1044.50
585,885.64,1447.03,6456.88,24092.50,1007.50
594,887.08,1465.26,1455.84,17432.00,1048.50
603,888.51,1483.43,7959.59,25228.50,1038.00
612,889.94,1501.54,3117.65,18560.50,1002.00
621,891.37,1519.58,1094.58,15574.00,987.00
630,892.80,1537.56,921.40,14800.00,1016.00
639,894.23,1555.46,161.60,13458.50,1007.50
648,895.66,1573.31,0.00,12664.00,1025.50
657,897.09,1591.09,3048.90,16440.50,1007.00
666,898.52,1608.80,4504.94,17961.50,1011.00
675,899.95,1626.44,569.77,12510.50,997.00
684,901.37,1644.02,1782.24,14690.50,1033.50
693,902.80,1661.54,2046.87,14674.50,1053.00
702,904.22,1678.99,297.96,10894.00,996.50
711,905.64,1696.37,97.59,10072.50,1028.50
720,907.07,1713.68,0.00,9364.50,1005.00
729,908.49,1730.93,11.89,8967.00,1011.00
738,909.91,1748.12,97.24,8621.00,1012.00
747,911.33,1765.23,0.00,8079.50,1006.00
756,912.75,1782.29,53.84,7862.00,1001.00
765,914.16,1799.27,54.63,7584.50,1009.50
774,915.58,1816.19,4.89,7233.50,995.00
783,916.99,1833.04,156.93,7153.00,1015.00
792,918.41,1849.83,216.35,6961.00,1027.00
801,919.82,1866.55,310.68,6788.50,1013.00
810,921.23,1883.20,380.29,6624.00,1033.00
819,922.64,1899.79,416.42,6341.50,990.50
828,924.05,1916.31,373.06,6043.00,1012.50
837,925.46,1932.77,381.43,5789.00,1013.00
846,926.86,1949.16,387.53,5537.50,1018.50
855,928.27,1965.48,386.67,5247.50,990.50
864,929.67,1981.74,333.08,4964.00,1007.50
873,931.07,1997.93,162.64,4556.00,1020.00
882,932.47,2014.06,147.54,4272.00,1002.00
891,933.87,2030.12,65.22,3976.00,1013.50
900,935.27,2046.11,24.43,3736.50,1053.00
909,936.66,2062.04,41.52,3518.00,1039.00
918,938.06,2077.91,0.00,3247.50,1006.50
927,939.45,2093.70,0.00,3077.50,1017.00
936,940.84,2109.44,9.41,2946.00,1001.00
945,942.23,2125.10,5.61,2826.50,1018.00
954,943.62,2140.70,0.00,2694.50,1021.00
963,945.00,2156.24,10.91,2592.50,997.00
972,946.39,2171.71,25.68,2530.00,1006.50
981,947.77,2187.12,0.00,2411.50,995.00
990,949.15,2202.46,0.06,2369.50,1017.00
999,950.53,2217.73,18.21,2314.50,991.50
1008,951.90,2232.94,67.85,2313.50,993.00
1017,953.28,2248.09,49.92,2291.00,1033.00
1026,954.65,2263.17,32.05,2198.50,996.00
1035,956.02,2278.19,15.73,2157.00,1004.00
1044,957.39,2293.14,2.54,2126.50,1019.00
1053,958.75,2308.03,36.64,2095.50,998.00
1062,960.12,2322.85,0.63,2053.50,1004.50
1071,961.48,2337.61,25.16,2041.50,999.00
1080,962.84,2352.31,0.00,2016.50,1007.50
1089,964.20,2366.94,11.12,2025.00,1017.00
1098,965.56,2381.51,147.38,2096.00,1017.00
1107,966.91,2396.01,153.47,2084.00,1017.00
1116,968.26,2410.45,110.62,2038.50,1012.00
1125,969.61,2424.83,139.37,2038.50,1002.00
1134,970.96,2439.14,129.35,2022.00,1005.50
1143,972.30,2453.39,120.77,1991.00,1002.00
1152,973.65,2467.58,85.28,1965.00,1010.50
1161,974.99,2481.70,129.89,1965.50,998.00
1170,976.33,2495.76,156.77,1979.50,1013.50
1179,977.66,2509.76,106.45,1925.50,1015.00
1188,979.00,2523.70,13.21,1881.00,1027.50
1197,980.33,2537.57,25.28,1850.50,1000.50
1206,981.66,2551.38,24.95,1879.00,1039.00
1215,982.98,2565.13,37.54,1851.50,1007.00
1224,984.31,2578.82,2.27,1827.50,1003.50
1233,985.63,2592.44,0.00,1814.50,1008.50
1242,986.95,2606.01,22.09,1898.00,1041.00
1251,988.27,2619.51,33.08,1937.00,1048.00
1260,989.58,2632.95,27.10,1946.50,1034.50
1269,990.89,2646.33,47.84,2020.50,1068.50
1278,992.20,2659.65,87.64,2026.00,1032.00
1287,993.51,2672.91,71.60,2055.50,1037.50
1296,994.81,2686.10,396.49,2187.00,1039.00
1305,996.12,2699.24,536.34,2254.50,1048.50
1314,997.41,2712.32,785.49,2349.50,1050.50
1323,998.71,2725.33,1044.51,2426.50,1023.50
1332,1000.01,2738.29,1109.25,2456.00,1061.50
1341,1001.30,2751.18,673.22,2327.50,1091.00
1350,1002.59,2764.02,544.20,2230.00,1061.50
1359,1003.87,2776.79,297.56,2114.00,1037.00
1368,1005.15,2789.51,0.00,1999.50,1049.50
1377,1006.43,2802.17,40.93,2032.50,1026.00
1386,1007.71,2814.77,0.00,2030.00,1007.00
1395,1008.99,2827.30,0.00,2234.50,1020.00
1404,1010.26,2839.78,0.00,2489.50,1050.00
1413,1011.53,2852.21,212.06,2860.50,1035.50
1422,1012.80,2864.57,1181.27,3367.50,1066.00
1431,1014.06,2876.87,754.83,3511.50,1019.00
1440,1015.32,2889.12,1083.19,3826.00,1053.00
1449,1016.58,2901.31,412.11,3873.50,1040.00
1458,1017.83,2913.44,6355.23,5316.00,1022.00
1467,1019.09,2925.51,25773.95,9436.50,1046.50
1476,1020.33,2937.53,24019.39,8967.50,1076.00
1485,1021.58,2949.49,13020.79,6181.00,1053.00
1494,1022.82,2961.39,8274.50,5189.00,1037.00
1503,1024.07,2973.23,12119.13,5573.50,1084.50
1512,1025.30,2985.02,2836.73,3741.50,1021.00
1521,1026.54,2996.75,537.72,3204.00,1046.50
1530,1027.77,3008.43,759.28,3079.50,1037.00
1539,1029.00,3020.05,1418.70,2943.50,1022.00
1548,1030.22,3031.61,10.30,2563.00,1023.50
1557,1031.45,3043.12,556.68,2511.00,1049.50
1566,1032.67,3054.57,165.95,2324.00,1019.00
1575,1033.88,3065.97,130.22,2157.00,979.50
1584,1035.10,3077.31,0.00,2106.50,1047.50
1593,1036.31,3088.60,0.00,1999.50,1051.00
1602,1037.52,3099.83,0.00,1950.00,1038.50
1611,1038.72,3111.00,190.39,1960.50,1055.50
1620,1039.92,3122.13,112.46,1927.00,1057.00
1629,1041.12,3133.20,106.42,1917.00,1069.00
1638,1042.32,3144.21,0.00,1837.00,1027.00
1647,1043.51,3155.17,76.82,1848.50,1043.00
1656,1044.70,3166.08,108.41,1882.50,1086.50
1665,1045.88,3176.93,565.27,1898.00,1068.50
1674,1047.07,3187.73,929.33,1862.00,1022.00
1683,1048.24,3198.48,1537.72,1934.00,1064.50
1692,1049.42,3209.17,2156.69,1961.50,1064.50
1701,1050.59,3219.81,3015.29,1978.00,1046.50
1710,1051.76,3230.40,3148.98,1990.00,1075.00
1719,1052.93,3240.94,3513.92,1934.00,1025.50
1728,1054.10,3251.42,3704.45,1942.00,1052.00
1737,1055.26,3261.86,3429.38,1919.00,1073.00
1746,1056.41,3272.24,3867.87,1930.50,1085.50
1755,1057.57,3282.57,3651.91,1881.50,1087.50
1764,1058.72,3292.85,3177.33,1801.00,1057.00
1773,1059.87,3303.07,3102.55,1753.00,1046.50
1782,1061.01,3313.25,3142.67,1733.50,1052.00
1791,1062.15,3323.38,2791.09,1665.50,1029.50
1800,1063.29,3333.45,1961.06,1617.00,1038.00
1809,1064.42,3343.48,1973.07,1600.00,1044.00
1818,1065.55,3353.45,1747.71,1563.00,1045.50
1827,1066.68,3363.38,1235.04,1522.50,1041.00
1836,1067.81,3373.25,796.46,1460.50,1012.00
1845,1068.93,3383.08,99.41,1424.50,1024.00
1854,1070.05,3392.85,821.00,1496.50,1085.50
1863,1071.16,3402.58,522.77,1417.50,1035.00
1872,1072.27,3412.26,1126.39,1429.00,1049.50
1881,1073.38,3421.89,2964.98,1418.00,1003.50
1890,1074.49,3431.47,3138.24,1429.00,1028.50
1899,1075.59,3441.00,3027.83,1409.00,1036.00
1908,1076.69,3450.49,1694.74,1373.00,1054.00
1917,1077.78,3459.93,434.82,1290.00,1025.50
1926,1078.87,3469.32,1190.71,1312.50,1051.00
1935,1079.96,3478.66,711.44,1266.00,1034.00
1944,1081.05,3487.95,690.15,1280.00,1062.00
1953,1082.13,3497.20,1531.27,1268.00,1049.00
1962,1083.21,3506.40,1213.78,1219.50,1022.00
1971,1084.28,3515.56,547.21,1252.00,1084.50
1980,1085.36,3524.67,1276.76,1202.00,1033.00
1989,1086.42,3533.73,1015.52,1171.00,1018.00
1998,1087.49,3542.74,580.85,1175.00,1039.00
2007,1088.55,3551.71,801.67,1150.50,1024.00
2016,1089.61,3560.64,532.03,1139.50,1024.00
2025,1090.67,3569.52,1466.39,1145.50,1025.50
2034,1091.72,3578.35,0.00,1079.00,991.50
2043,1092.77,3587.14,791.92,1094.00,991.50
2047,1093.23,3591.03,0.84,1062.50,977.50