File: enlighten/plugins/Raman/MatchingLibrary/785X/1-octen-3-ol.csv
ENLIGHTEN Version,4.1.22
Measurement ID,20250220-195832-734330-WP-01977
Serial Number,WP-01977
Model,WP-785X-F13-R-ILC
Detector,S16011-1106
Label,1-octen-3-ol
Declared Match,
Declared Score,0
Scan Averaging,2
Boxcar,0
Technique,Raman
Baseline Correction Algo,AirPLS
ROI Pixel Start,47
ROI Pixel End,2047
ROI Start Line,0
ROI Stop Line,63
CCD C4,1.38617e-12
Slit Width,25
Cropped,True
Interpolated,False
Wavenumber Correction,-0.100481
Raman Intensity Corrected,True
Deconvolved,True
Region,
High Gain Mode,False
Laser Power mW,
Electrical Dark Correction,False
Battery %,
Device ID,<DeviceID USB:0x24aa:0x1000:0:1>
FW Version,10.0.0.10
FPGA Version,035-001
BLE Version,
Prefix,enlighten
Suffix,
Preset,
Auto-Raman,True
Session Count,0
Plugin Name,
Integration Time,634
Timestamp,2025-02-20 19:58:32.7343
Note,
Temperature,0
CCD C0,793.274
CCD C1,0.153259
CCD C2,1.40788e-05
CCD C3,-1.132e-08
CCD Offset,0
CCD Gain,1.9
CCD Offset Odd,0
CCD Gain Odd,1.9
Laser Wavelength,785.032
Laser Enable,False
Laser Power %,0
Laser Temperature,0
Pixel Count,2048

Pixel,Wavelength,Wavenumber,Processed,Raw,Dark
0,793.27,132.25,NA,1068.50,987.00
9,794.65,154.15,NA,1091.00,1000.50
18,796.04,176.01,NA,1132.00,1027.50
27,797.42,197.83,NA,1156.00,1036.00
36,798.81,219.60,NA,1201.00,1011.00
45,800.20,241.33,NA,9873.00,1026.00
54,801.59,263.02,2416.69,12591.00,1051.50
63,802.98,284.66,2598.37,12603.50,1047.50
72,804.38,306.26,3408.64,13146.00,1035.00
81,805.77,327.82,1140.62,9956.00,1019.00
90,807.17,349.32,1368.55,9730.50,1025.00
99,808.57,370.78,716.99,8471.00,1041.00
108,809.98,392.19,1182.32,8578.50,1007.50
117,811.38,413.56,1216.94,8166.50,1036.00
126,812.79,434.87,3.07,5915.00,1022.00
135,814.19,456.14,0.04,5416.50,992.50
144,815.60,477.36,387.59,5718.50,1026.50
153,817.01,498.52,398.09,5413.00,1027.50
162,818.42,519.64,0.00,4551.00,1030.50
171,819.84,540.70,804.67,5566.50,997.00
180,821.25,561.71,822.87,5336.00,991.00
189,822.67,582.67,109.26,3988.00,1003.00
198,824.09,603.57,217.75,3862.50,995.00
207,825.50,624.43,0.00,3219.00,1032.00
216,826.92,645.22,1.63,3301.00,1009.50
225,828.34,665.97,1119.01,5056.00,994.00
234,829.77,686.66,592.30,4462.00,1037.00
243,831.19,707.29,0.00,3511.00,1040.00
252,832.61,727.87,308.87,4314.00,1043.50
261,834.04,748.39,473.74,4903.50,1003.00
270,835.47,768.85,919.82,5844.00,995.00
279,836.89,789.26,0.00,4624.00,1018.00
288,838.32,809.61,1539.33,7383.50,1010.50
297,839.75,829.90,3781.65,11424.50,1046.50
306,841.18,850.14,5551.24,14542.50,1028.50
315,842.61,870.31,3708.11,12474.00,1019.00
324,844.04,890.43,6354.50,17061.00,1000.50
333,845.47,910.49,2620.37,11353.50,1006.50
342,846.90,930.49,912.92,8108.00,1020.00
351,848.33,950.43,482.06,7275.50,1013.50
360,849.77,970.31,2071.99,9698.50,1003.50
369,851.20,990.12,3618.29,12232.00,1014.00
378,852.63,1009.88,3320.87,12121.00,1051.50
387,854.07,1029.58,4709.25,14048.00,1003.00
396,855.50,1049.21,3160.51,11909.00,1004.00
405,856.94,1068.79,6094.64,16692.50,1018.00
414,858.37,1088.30,3903.98,12924.00,1005.50
423,859.81,1107.75,3732.61,12579.50,1037.00
432,861.25,1127.14,3146.47,11496.00,1030.50
441,862.68,1146.46,1419.42,8246.00,996.00
450,864.12,1165.73,44.69,6175.00,1005.50
459,865.55,1184.93,19.64,6168.50,979.00
468,866.99,1204.06,153.23,6795.00,1003.00
477,868.43,1223.14,134.65,7269.00,1004.50
486,869.86,1242.15,7.91,7498.00,1005.50
495,871.30,1261.10,2319.88,11701.50,1003.00
504,872.73,1279.98,11669.76,26881.50,1010.50
513,874.17,1298.80,15791.10,34029.00,1014.00
522,875.60,1317.55,7899.66,22070.00,1021.00
531,877.04,1336.24,2499.61,13563.00,998.00
540,878.47,1354.87,1028.15,11440.50,1004.00
549,879.91,1373.43,843.70,11424.00,1003.50
558,881.34,1391.93,804.41,11447.00,970.50
567,882.78,1410.36,4404.36,16357.50,986.50
576,884.21,1428.73,8796.11,24090.50,1030.00
585,885.64,1447.03,18110.88,36899.50,993.00
594,887.08,1465.26,9854.65,23410.00,1030.00
603,888.51,1483.43,1271.87,9943.50,1003.00
612,889.94,1501.54,160.92,7679.00,972.50
621,891.37,1519.58,0.00,6810.00,964.00
630,892.80,1537.56,0.00,6148.50,987.50
639,894.23,1555.46,0.00,5677.00,991.50
648,895.66,1573.31,0.00,5575.50,989.50
657,897.09,1591.09,86.30,5828.50,978.00
666,898.52,1608.80,744.55,6676.50,983.00
675,899.95,1626.44,2313.94,9066.50,996.00
684,901.37,1644.02,32107.33,43486.00,1007.00
693,902.80,1661.54,2107.66,8923.00,1028.50
702,904.22,1678.99,388.21,5634.00,971.50
711,905.64,1696.37,506.62,5568.00,1007.50
720,907.07,1713.68,883.70,5709.00,987.50
729,908.49,1730.93,383.72,4768.50,988.50
738,909.91,1748.12,4.97,3988.00,993.00
747,911.33,1765.23,0.00,3674.00,992.50
756,912.75,1782.29,3.39,3443.00,977.00
765,914.16,1799.27,0.00,3276.50,988.50
774,915.58,1816.19,9.83,3172.00,967.00
783,916.99,1833.04,65.55,3156.00,987.50
792,918.41,1849.83,91.07,3102.50,1005.50
801,919.82,1866.55,72.04,2969.50,992.50
810,921.23,1883.20,88.31,2910.00,1004.00
819,922.64,1899.79,99.62,2800.00,973.00
828,924.05,1916.31,115.72,2737.00,990.50
837,925.46,1932.77,134.51,2658.00,989.50
846,926.86,1949.16,77.66,2522.50,999.00
855,928.27,1965.48,105.06,2439.00,971.50
864,929.67,1981.74,98.86,2357.50,981.50
873,931.07,1997.93,63.24,2244.50,1000.00
882,932.47,2014.06,23.65,2098.50,978.00
891,933.87,2030.12,10.57,2022.00,991.00
900,935.27,2046.11,0.00,1958.50,1025.50
909,936.66,2062.04,28.06,1908.50,1014.00
918,938.06,2077.91,9.66,1798.50,976.00
927,939.45,2093.70,0.35,1766.00,998.50
936,940.84,2109.44,0.00,1707.00,987.50
945,942.23,2125.10,0.00,1706.00,1011.00
954,943.62,2140.70,1.53,1685.00,999.00
963,945.00,2156.24,1.39,1660.00,982.00
972,946.39,2171.71,29.04,1689.00,987.50
981,947.77,2187.12,201.16,1824.00,982.00
990,949.15,2202.46,190.16,1817.50,995.50
999,950.53,2217.73,86.17,1702.50,981.00
1008,951.90,2232.94,87.52,1672.00,968.50
1017,953.28,2248.09,40.96,1673.00,1011.50
1026,954.65,2263.17,57.35,1652.00,992.50
1035,956.02,2278.19,62.02,1644.50,994.00
1044,957.39,2293.14,84.34,1651.00,995.00
1053,958.75,2308.03,20.43,1590.00,991.50
1062,960.12,2322.85,19.28,1579.00,989.50
1071,961.48,2337.61,20.33,1568.50,991.50
1080,962.84,2352.31,31.10,1553.50,982.00
1089,964.20,2366.94,7.05,1552.50,1000.00
1098,965.56,2381.51,18.34,1553.00,992.50
1107,966.91,2396.01,60.31,1589.50,1002.00
1116,968.26,2410.45,87.92,1595.00,983.50
1125,969.61,2424.83,93.68,1592.50,979.00
1134,970.96,2439.14,84.39,1592.00,983.00
1143,972.30,2453.39,54.52,1589.50,991.00
1152,973.65,2467.58,60.32,1607.50,1005.00
1161,974.99,2481.70,7.64,1562.00,992.50
1170,976.33,2495.76,0.00,1558.50,991.50
1179,977.66,2509.76,0.00,1583.50,997.00
1188,979.00,2523.70,32.55,1686.50,1006.00
1197,980.33,2537.57,1.42,1723.50,975.50
1206,981.66,2551.38,36.16,1868.50,1017.00
1215,982.98,2565.13,8.50,1907.50,986.00
1224,984.31,2578.82,41.97,2005.00,989.50
1233,985.63,2592.44,156.53,2145.00,990.50
1242,986.95,2606.01,215.79,2269.50,1024.50
1251,988.27,2619.51,0.00,2232.00,1025.50
1260,989.58,2632.95,160.52,2349.00,1018.00
1269,990.89,2646.33,212.04,2449.50,1049.50
1278,992.20,2659.65,596.94,2613.50,1012.50
1287,993.51,2672.91,985.57,2801.50,1017.00
1296,994.81,2686.10,816.83,2777.50,1019.00
1305,996.12,2699.24,1276.80,3009.50,1026.00
1314,997.41,2712.32,3085.96,3705.00,1029.50
1323,998.71,2725.33,4701.60,4351.00,1011.00
1332,1000.01,2738.29,4361.11,4180.00,1040.00
1341,1001.30,2751.18,1224.20,3046.00,1064.50
1350,1002.59,2764.02,81.63,2591.00,1043.00
1359,1003.87,2776.79,0.00,2518.00,1017.00
1368,1005.15,2789.51,0.00,2641.00,1028.50
1377,1006.43,2802.17,0.00,3012.50,1011.50
1386,1007.71,2814.77,302.46,3704.50,1007.00
1395,1008.99,2827.30,5771.48,5392.00,994.00
1404,1010.26,2839.78,20368.45,10139.00,1040.00
1413,1011.53,2852.21,67568.22,22398.50,1023.00
1422,1012.80,2864.57,81474.10,26557.00,1059.50
1431,1014.06,2876.87,91128.71,27593.50,1002.50
1440,1015.32,2889.12,82021.40,24989.50,1046.00
1449,1016.58,2901.31,88787.32,25739.50,1024.00
1458,1017.83,2913.44,89028.49,24977.50,1005.50
1467,1019.09,2925.51,83575.94,23013.50,1026.50
1476,1020.33,2937.53,80484.06,20924.00,1049.50
1485,1021.58,2949.49,42735.76,12983.00,1036.00
1494,1022.82,2961.39,37336.96,10660.00,1011.50
1503,1024.07,2973.23,21752.95,7643.50,1058.00
1512,1025.30,2985.02,22714.87,7173.50,1002.00
1521,1026.54,2996.75,20683.73,6975.50,1021.50
1530,1027.77,3008.43,35739.16,8983.00,1030.00
1539,1029.00,3020.05,19620.40,6196.00,999.00
1548,1030.22,3031.61,4188.36,3408.00,1012.00
1557,1031.45,3043.12,0.29,2485.50,1023.00
1566,1032.67,3054.57,0.00,2186.00,1013.00
1575,1033.88,3065.97,640.27,2181.00,974.50
1584,1035.10,3077.31,5731.53,2798.00,1029.50
1593,1036.31,3088.60,7762.32,2916.50,1025.50
1602,1037.52,3099.83,3705.71,2257.50,1012.00
1611,1038.72,3111.00,776.75,1774.50,1033.50
1620,1039.92,3122.13,5.28,1581.00,1035.00
1629,1041.12,3133.20,0.00,1492.50,1038.50
1638,1042.32,3144.21,46.78,1439.50,1009.50
1647,1043.51,3155.17,98.00,1432.50,1023.00
1656,1044.70,3166.08,155.24,1460.50,1053.00
1665,1045.88,3176.93,339.06,1452.50,1039.50
1674,1047.07,3187.73,244.62,1415.50,1013.00
1683,1048.24,3198.48,470.43,1446.00,1042.50
1692,1049.42,3209.17,924.23,1463.50,1042.50
1701,1050.59,3219.81,1110.04,1430.00,1012.50
1710,1051.76,3230.40,1576.90,1471.00,1035.00
1719,1052.93,3240.94,1851.51,1442.50,1005.00
1728,1054.10,3251.42,2233.38,1478.00,1031.50
1737,1055.26,3261.86,2513.68,1494.50,1044.50
1746,1056.41,3272.24,2912.79,1501.50,1050.50
1755,1057.57,3282.57,2967.42,1508.50,1070.50
1764,1058.72,3292.85,2629.72,1445.00,1044.50
1773,1059.87,3303.07,3013.93,1430.00,1029.50
1782,1061.01,3313.25,2525.29,1392.00,1031.50
1791,1062.15,3323.38,3139.79,1380.00,1010.50
1800,1063.29,3333.45,2720.83,1354.50,1019.50
1809,1064.42,3343.48,2973.13,1363.50,1031.50
1818,1065.55,3353.45,2823.65,1328.50,1022.00
1827,1066.68,3363.38,2995.20,1326.50,1027.50
1836,1067.81,3373.25,2583.21,1276.00,1000.00
1845,1068.93,3383.08,3114.95,1276.50,996.00
1854,1070.05,3392.85,2844.14,1328.50,1069.50
1863,1071.16,3402.58,2479.45,1255.00,1019.00
1872,1072.27,3412.26,2874.31,1254.00,1020.00
1881,1073.38,3421.89,2605.41,1199.50,985.50
1890,1074.49,3431.47,2510.37,1215.50,1010.50
1899,1075.59,3441.00,2934.96,1214.00,1006.50
1908,1076.69,3450.49,3204.24,1237.00,1033.00
1917,1077.78,3459.93,2978.49,1176.50,989.50
1926,1078.87,3469.32,1872.55,1191.50,1039.00
1935,1079.96,3478.66,2140.85,1167.00,1015.50
1944,1081.05,3487.95,1781.58,1169.00,1032.00
1953,1082.13,3497.20,1771.50,1153.00,1023.00
1962,1083.21,3506.40,1418.96,1122.50,1007.50
1971,1084.28,3515.56,1521.33,1162.50,1049.50
1980,1085.36,3524.67,1117.54,1121.50,1025.00
1989,1086.42,3533.73,972.85,1090.50,995.00
1998,1087.49,3542.74,89.51,1100.50,1030.00
2007,1088.55,3551.71,1036.27,1075.00,993.50
2016,1089.61,3560.64,376.62,1074.00,1006.50
2025,1090.67,3569.52,218.55,1069.00,1007.50
2034,1091.72,3578.35,641.51,1030.00,964.00
2043,1092.77,3587.14,600.77,1032.00,970.00
2047,1093.23,3591.03,0.00,1010.50,962.00