File: enlighten/plugins/Raman/MatchingLibrary/785X/citric acid.csv
ENLIGHTEN Version,4.1.22
Measurement ID,20250220-203229-597040-WP-01977
Serial Number,WP-01977
Model,WP-785X-F13-R-ILC
Detector,S16011-1106
Label,citric acid
Declared Match,
Declared Score,0
Scan Averaging,1
Boxcar,0
Technique,Raman
Baseline Correction Algo,AirPLS
ROI Pixel Start,47
ROI Pixel End,2047
ROI Start Line,0
ROI Stop Line,63
CCD C4,1.38617e-12
Slit Width,25
Cropped,True
Interpolated,False
Wavenumber Correction,-0.100481
Raman Intensity Corrected,True
Deconvolved,True
Region,
High Gain Mode,False
Laser Power mW,
Electrical Dark Correction,False
Battery %,
Device ID,<DeviceID USB:0x24aa:0x1000:0:1>
FW Version,10.0.0.10
FPGA Version,035-001
BLE Version,
Prefix,enlighten
Suffix,
Preset,
Auto-Raman,True
Session Count,0
Plugin Name,
Integration Time,1914
Timestamp,2025-02-20 20:32:29.597
Note,
Temperature,0
CCD C0,793.274
CCD C1,0.153259
CCD C2,1.40788e-05
CCD C3,-1.132e-08
CCD Offset,0
CCD Gain,1.9
CCD Offset Odd,0
CCD Gain Odd,1.9
Laser Wavelength,785.032
Laser Enable,False
Laser Power %,0
Laser Temperature,0
Pixel Count,2048

Pixel,Wavelength,Wavenumber,Processed,Raw,Dark
0,793.27,132.25,NA,1378.00,1271.00
9,794.65,154.15,NA,1459.00,1323.00
18,796.04,176.01,NA,1505.00,1366.00
27,797.42,197.83,NA,1583.00,1431.00
36,798.81,219.60,NA,1577.00,1363.00
45,800.20,241.33,NA,7914.00,1450.00
54,801.59,263.02,5789.56,15291.00,1541.00
63,802.98,284.66,1860.81,11280.00,1532.00
72,804.38,306.26,3184.53,12774.00,1490.00
81,805.77,327.82,0.00,8776.00,1444.00
90,807.17,349.32,4612.17,14629.00,1452.00
99,808.57,370.78,2876.69,13833.00,1511.00
108,809.98,392.19,1333.62,11654.00,1414.00
117,811.38,413.56,1843.24,12127.00,1478.00
126,812.79,434.87,496.59,10206.00,1429.00
135,814.19,456.14,13.25,9328.00,1385.00
144,815.60,477.36,802.91,10543.00,1490.00
153,817.01,498.52,1157.77,11016.00,1475.00
162,818.42,519.64,1732.60,11823.00,1495.00
171,819.84,540.70,2879.11,13116.00,1382.00
180,821.25,561.71,1826.64,11855.00,1370.00
189,822.67,582.67,44.62,8643.00,1421.00
198,824.09,603.57,1813.73,11246.00,1347.00
207,825.50,624.43,0.00,7891.00,1463.00
216,826.92,645.22,2053.04,10822.00,1393.00
225,828.34,665.97,322.75,8362.00,1363.00
234,829.77,686.66,5543.17,16032.00,1638.00
243,831.19,707.29,120.67,7844.00,1497.00
252,832.61,727.87,0.00,7324.00,1513.00
261,834.04,748.39,11.26,7422.00,1412.00
270,835.47,768.85,1526.92,10733.00,1363.00
279,836.89,789.26,10950.90,28051.00,1412.00
288,838.32,809.61,865.12,9091.00,1404.00
297,839.75,829.90,60.60,7751.00,1507.00
306,841.18,850.14,0.00,7159.00,1425.00
315,842.61,870.31,341.76,8009.00,1401.00
324,844.04,890.43,762.94,9006.00,1342.00
333,845.47,910.49,1715.92,11018.00,1374.00
342,846.90,930.49,5232.08,17103.00,1414.00
351,848.33,950.43,5739.66,18851.00,1410.00
360,849.77,970.31,58.41,7092.00,1374.00
369,851.20,990.12,0.00,6817.00,1414.00
378,852.63,1009.88,0.00,6963.00,1469.00
387,854.07,1029.58,293.64,7641.00,1366.00
396,855.50,1049.21,4715.52,15066.00,1380.00
405,856.94,1068.79,1366.02,10591.00,1395.00
414,858.37,1088.30,2566.46,12677.00,1325.00
423,859.81,1107.75,26.86,8225.00,1444.00
432,861.25,1127.14,1.63,8554.00,1416.00
441,862.68,1146.46,2743.34,12907.00,1347.00
450,864.12,1165.73,612.99,10354.00,1383.00
459,865.55,1184.93,0.49,9784.00,1260.00
468,866.99,1204.06,4186.29,17063.00,1361.00
477,868.43,1223.14,3047.63,15810.00,1359.00
486,869.86,1242.15,10.71,11529.00,1364.00
495,871.30,1261.10,1.29,11960.00,1345.00
504,872.73,1279.98,909.08,13953.00,1382.00
513,874.17,1298.80,1687.29,15591.00,1355.00
522,875.60,1317.55,2330.18,16880.00,1376.00
531,877.04,1336.24,2624.08,17839.00,1289.00
540,878.47,1354.87,3131.32,18972.00,1334.00
549,879.91,1373.43,2501.87,18540.00,1355.00
558,881.34,1391.93,11616.82,30426.00,1281.00
567,882.78,1410.36,2959.54,19633.00,1292.00
576,884.21,1428.73,5272.37,23441.00,1416.00
585,885.64,1447.03,2235.83,19343.00,1306.00
594,887.08,1465.26,2894.75,20161.00,1382.00
603,888.51,1483.43,760.04,17482.00,1374.00
612,889.94,1501.54,194.28,16662.00,1271.00
621,891.37,1519.58,36.79,16203.00,1224.00
630,892.80,1537.56,255.53,16260.00,1292.00
639,894.23,1555.46,0.00,15561.00,1285.00
648,895.66,1573.31,7.57,15553.00,1296.00
657,897.09,1591.09,79.69,15588.00,1270.00
666,898.52,1608.80,736.12,16237.00,1311.00
675,899.95,1626.44,2650.94,18382.00,1294.00
684,901.37,1644.02,2318.21,17530.00,1311.00
693,902.80,1661.54,1674.57,16305.00,1416.00
702,904.22,1678.99,3897.73,19111.00,1256.00
711,905.64,1696.37,11543.17,27553.00,1376.00
720,907.07,1713.68,2711.42,16091.00,1300.00
729,908.49,1730.93,5770.06,20155.00,1300.00
738,909.91,1748.12,2250.08,15303.00,1336.00
747,911.33,1765.23,79.90,11400.00,1304.00
756,912.75,1782.29,0.00,10549.00,1290.00
765,914.16,1799.27,43.51,10143.00,1306.00
774,915.58,1816.19,0.00,9613.00,1277.00
783,916.99,1833.04,132.58,9509.00,1364.00
792,918.41,1849.83,337.78,9327.00,1332.00
801,919.82,1866.55,493.96,9104.00,1327.00
810,921.23,1883.20,505.94,8784.00,1347.00
819,922.64,1899.79,452.35,8273.00,1275.00
828,924.05,1916.31,436.42,7895.00,1302.00
837,925.46,1932.77,500.91,7597.00,1300.00
846,926.86,1949.16,360.13,7124.00,1327.00
855,928.27,1965.48,394.79,6743.00,1275.00
864,929.67,1981.74,253.01,6316.00,1332.00
873,931.07,1997.93,172.26,5909.00,1338.00
882,932.47,2014.06,92.14,5450.00,1309.00
891,933.87,2030.12,70.76,5110.00,1309.00
900,935.27,2046.11,0.00,4795.00,1410.00
909,936.66,2062.04,0.00,4527.00,1393.00
918,938.06,2077.91,0.00,4170.00,1304.00
927,939.45,2093.70,11.88,4013.00,1317.00
936,940.84,2109.44,55.53,3840.00,1289.00
945,942.23,2125.10,13.07,3696.00,1319.00
954,943.62,2140.70,8.37,3569.00,1336.00
963,945.00,2156.24,30.51,3403.00,1254.00
972,946.39,2171.71,23.39,3354.00,1294.00
981,947.77,2187.12,11.25,3214.00,1262.00
990,949.15,2202.46,10.23,3185.00,1311.00
999,950.53,2217.73,23.90,3079.00,1251.00
1008,951.90,2232.94,0.00,2990.00,1254.00
1017,953.28,2248.09,0.00,3046.00,1366.00
1026,954.65,2263.17,17.32,2942.00,1260.00
1035,956.02,2278.19,64.72,2995.00,1302.00
1044,957.39,2293.14,144.91,3029.00,1304.00
1053,958.75,2308.03,26.75,2881.00,1268.00
1062,960.12,2322.85,124.80,2976.00,1270.00
1071,961.48,2337.61,6.06,2862.00,1292.00
1080,962.84,2352.31,73.02,2883.00,1289.00
1089,964.20,2366.94,1.77,2870.00,1330.00
1098,965.56,2381.51,13.20,2881.00,1340.00
1107,966.91,2396.01,98.89,2904.00,1311.00
1116,968.26,2410.45,6.67,2803.00,1289.00
1125,969.61,2424.83,92.76,2821.00,1271.00
1134,970.96,2439.14,100.22,2821.00,1283.00
1143,972.30,2453.39,234.50,2864.00,1279.00
1152,973.65,2467.58,277.82,2893.00,1306.00
1161,974.99,2481.70,524.04,2991.00,1300.00
1170,976.33,2495.76,596.97,3010.00,1325.00
1179,977.66,2509.76,622.48,2995.00,1328.00
1188,979.00,2523.70,536.47,2955.00,1366.00
1197,980.33,2537.57,603.17,2847.00,1264.00
1206,981.66,2551.38,629.70,2934.00,1376.00
1215,982.98,2565.13,551.21,2773.00,1289.00
1224,984.31,2578.82,590.41,2731.00,1271.00
1233,985.63,2592.44,513.41,2652.00,1279.00
1242,986.95,2606.01,416.84,2699.00,1402.00
1251,988.27,2619.51,427.74,2648.00,1380.00
1260,989.58,2632.95,476.45,2621.00,1372.00
1269,990.89,2646.33,340.99,2593.00,1439.00
1278,992.20,2659.65,152.02,2388.00,1349.00
1287,993.51,2672.91,199.57,2382.00,1357.00
1296,994.81,2686.10,6.94,2272.00,1357.00
1305,996.12,2699.24,0.00,2251.00,1395.00
1314,997.41,2712.32,35.39,2295.00,1414.00
1323,998.71,2725.33,93.17,2228.00,1342.00
1332,1000.01,2738.29,197.13,2321.00,1406.00
1341,1001.30,2751.18,87.45,2384.00,1526.00
1350,1002.59,2764.02,183.22,2297.00,1421.00
1359,1003.87,2776.79,122.79,2192.00,1351.00
1368,1005.15,2789.51,58.51,2200.00,1397.00
1377,1006.43,2802.17,32.17,2130.00,1357.00
1386,1007.71,2814.77,0.00,2048.00,1308.00
1395,1008.99,2827.30,0.00,2122.00,1325.00
1404,1010.26,2839.78,18.06,2238.00,1389.00
1413,1011.53,2852.21,181.64,2289.00,1351.00
1422,1012.80,2864.57,240.15,2456.00,1461.00
1431,1014.06,2876.87,79.26,2299.00,1292.00
1440,1015.32,2889.12,6.10,2439.00,1397.00
1449,1016.58,2901.31,15.03,2492.00,1349.00
1458,1017.83,2913.44,1773.26,2952.00,1302.00
1467,1019.09,2925.51,16774.89,6384.00,1380.00
1476,1020.33,2937.53,6378.00,4468.00,1429.00
1485,1021.58,2949.49,7091.53,4402.00,1416.00
1494,1022.82,2961.39,24235.85,6895.00,1344.00
1503,1024.07,2973.23,8858.35,4761.00,1488.00
1512,1025.30,2985.02,11250.69,4930.00,1321.00
1521,1026.54,2996.75,12945.36,4579.00,1397.00
1530,1027.77,3008.43,1098.82,2549.00,1397.00
1539,1029.00,3020.05,8.38,2150.00,1296.00
1548,1030.22,3031.61,0.00,2065.00,1336.00
1557,1031.45,3043.12,0.00,2057.00,1393.00
1566,1032.67,3054.57,115.25,2000.00,1332.00
1575,1033.88,3065.97,23.14,1873.00,1228.00
1584,1035.10,3077.31,154.53,2052.00,1391.00
1593,1036.31,3088.60,244.12,2040.00,1372.00
1602,1037.52,3099.83,66.05,2012.00,1357.00
1611,1038.72,3111.00,142.74,2097.00,1420.00
1620,1039.92,3122.13,373.63,2093.00,1380.00
1629,1041.12,3133.20,255.99,2173.00,1444.00
1638,1042.32,3144.21,0.00,2107.00,1363.00
1647,1043.51,3155.17,69.58,2221.00,1418.00
1656,1044.70,3166.08,551.50,2376.00,1478.00
1665,1045.88,3176.93,859.90,2424.00,1456.00
1674,1047.07,3187.73,1591.55,2367.00,1342.00
1683,1048.24,3198.48,2362.97,2509.00,1429.00
1692,1049.42,3209.17,2704.52,2538.00,1454.00
1701,1050.59,3219.81,3393.81,2496.00,1361.00
1710,1051.76,3230.40,3859.11,2629.00,1473.00
1719,1052.93,3240.94,4491.56,2511.00,1338.00
1728,1054.10,3251.42,4699.13,2579.00,1412.00
1737,1055.26,3261.86,5730.00,2669.00,1450.00
1746,1056.41,3272.24,6997.64,2750.00,1480.00
1755,1057.57,3282.57,8732.25,2840.00,1497.00
1764,1058.72,3292.85,8795.82,2739.00,1433.00
1773,1059.87,3303.07,6769.21,2555.00,1395.00
1782,1061.01,3313.25,5015.99,2412.00,1382.00
1791,1062.15,3323.38,3269.46,2289.00,1374.00
1800,1063.29,3333.45,2864.17,2232.00,1370.00
1809,1064.42,3343.48,2519.86,2230.00,1410.00
1818,1065.55,3353.45,1692.04,2131.00,1368.00
1827,1066.68,3363.38,1318.76,2118.00,1406.00
1836,1067.81,3373.25,377.91,1949.00,1328.00
1845,1068.93,3383.08,1742.21,1934.00,1300.00
1854,1070.05,3392.85,1429.23,2092.00,1497.00
1863,1071.16,3402.58,1420.47,1932.00,1383.00
1872,1072.27,3412.26,345.28,1888.00,1404.00
1881,1073.38,3421.89,688.42,1761.00,1289.00
1890,1074.49,3431.47,1429.49,1782.00,1328.00
1899,1075.59,3441.00,1000.50,1782.00,1361.00
1908,1076.69,3450.49,2362.23,1849.00,1423.00
1917,1077.78,3459.93,2237.36,1699.00,1304.00
1926,1078.87,3469.32,1386.73,1763.00,1412.00
1935,1079.96,3478.66,1215.87,1666.00,1340.00
1944,1081.05,3487.95,1025.45,1738.00,1433.00
1953,1082.13,3497.20,6912.84,1809.00,1414.00
1962,1083.21,3506.40,3853.16,1663.00,1332.00
1971,1084.28,3515.56,1102.60,1723.00,1480.00
1980,1085.36,3524.67,860.67,1594.00,1374.00
1989,1086.42,3533.73,1307.52,1528.00,1315.00
1998,1087.49,3542.74,2687.52,1598.00,1372.00
2007,1088.55,3551.71,2721.75,1511.00,1304.00
2016,1089.61,3560.64,1331.88,1490.00,1319.00
2025,1090.67,3569.52,0.00,1488.00,1353.00
2034,1091.72,3578.35,1280.21,1372.00,1216.00
2043,1092.77,3587.14,3474.65,1399.00,1230.00
2047,1093.23,3591.03,204.46,1342.00,1196.00