File: enlighten/plugins/Raman/MatchingLibrary/785X/diethylamine.csv
ENLIGHTEN Version,4.1.22
Measurement ID,20250220-201019-664913-WP-01977
Serial Number,WP-01977
Model,WP-785X-F13-R-ILC
Detector,S16011-1106
Label,diethylamine
Declared Match,
Declared Score,0
Scan Averaging,2
Boxcar,0
Technique,Raman
Baseline Correction Algo,AirPLS
ROI Pixel Start,47
ROI Pixel End,2047
ROI Start Line,0
ROI Stop Line,63
CCD C4,1.38617e-12
Slit Width,25
Cropped,True
Interpolated,False
Wavenumber Correction,-0.100481
Raman Intensity Corrected,True
Deconvolved,True
Region,
High Gain Mode,False
Laser Power mW,
Electrical Dark Correction,False
Battery %,
Device ID,<DeviceID USB:0x24aa:0x1000:0:1>
FW Version,10.0.0.10
FPGA Version,035-001
BLE Version,
Prefix,enlighten
Suffix,
Preset,
Auto-Raman,True
Session Count,0
Plugin Name,
Integration Time,573
Timestamp,2025-02-20 20:10:19.6649
Note,
Temperature,0
CCD C0,793.274
CCD C1,0.153259
CCD C2,1.40788e-05
CCD C3,-1.132e-08
CCD Offset,0
CCD Gain,1.9
CCD Offset Odd,0
CCD Gain Odd,1.9
Laser Wavelength,785.032
Laser Enable,False
Laser Power %,0
Laser Temperature,0
Pixel Count,2048

Pixel,Wavelength,Wavenumber,Processed,Raw,Dark
0,793.27,132.25,NA,1014.00,968.50
9,794.65,154.15,NA,1022.00,991.50
18,796.04,176.01,NA,1056.00,1011.00
27,797.42,197.83,NA,1077.00,1017.00
36,798.81,219.60,NA,1075.00,989.50
45,800.20,241.33,NA,3616.00,1002.00
54,801.59,263.02,77.72,3661.50,1023.00
63,802.98,284.66,52.38,3557.00,1022.00
72,804.38,306.26,203.96,3641.50,1008.00
81,805.77,327.82,0.00,3265.00,1000.00
90,807.17,349.32,489.13,4016.50,1016.00
99,808.57,370.78,4120.61,8671.50,1024.00
108,809.98,392.19,1123.95,4793.00,994.50
117,811.38,413.56,2757.22,8349.00,1019.00
126,812.79,434.87,7176.56,15858.00,1003.00
135,814.19,456.14,757.82,3956.50,980.00
144,815.60,477.36,682.06,3810.00,1012.00
153,817.01,498.52,3019.02,6858.50,1022.00
162,818.42,519.64,246.84,2918.50,1019.00
171,819.84,540.70,0.00,2306.00,995.00
180,821.25,561.71,0.00,2155.00,979.00
189,822.67,582.67,0.00,2106.50,987.50
198,824.09,603.57,1.19,2099.00,983.50
207,825.50,624.43,0.00,2126.00,1016.00
216,826.92,645.22,0.00,2136.00,994.00
225,828.34,665.97,0.00,2220.50,975.00
234,829.77,686.66,218.10,2817.00,1129.00
243,831.19,707.29,752.26,3670.00,1026.50
252,832.61,727.87,1437.62,4876.00,1016.00
261,834.04,748.39,1351.21,4827.00,995.00
270,835.47,768.85,1470.99,5267.00,985.00
279,836.89,789.26,2263.21,6639.50,998.00
288,838.32,809.61,1886.92,6040.50,997.00
297,839.75,829.90,1814.41,5984.50,1025.50
306,841.18,850.14,2253.67,7009.50,1004.50
315,842.61,870.31,7544.76,15431.00,1008.50
324,844.04,890.43,6200.01,13304.50,994.00
333,845.47,910.49,3480.25,9205.00,993.00
342,846.90,930.49,4457.82,10428.50,1008.50
351,848.33,950.43,649.55,4455.50,997.00
360,849.77,970.31,0.17,3335.00,987.00
369,851.20,990.12,3.63,3505.00,1002.00
378,852.63,1009.88,1126.41,5627.50,1033.50
387,854.07,1029.58,3974.16,10695.50,1003.50
396,855.50,1049.21,10657.26,20048.50,1008.50
405,856.94,1068.79,3848.73,10084.00,1002.00
414,858.37,1088.30,1803.62,7164.00,972.50
423,859.81,1107.75,1932.91,7711.00,1018.00
432,861.25,1127.14,4433.17,11891.50,1015.00
441,862.68,1146.46,4969.33,12584.50,991.00
450,864.12,1165.73,585.62,5720.50,1005.00
459,865.55,1184.93,1183.37,6898.50,960.00
468,866.99,1204.06,1878.79,8022.50,1003.00
477,868.43,1223.14,0.00,4794.00,986.50
486,869.86,1242.15,780.28,6759.00,995.00
495,871.30,1261.10,4100.86,12031.00,990.00
504,872.73,1279.98,1519.37,8576.50,997.00
513,874.17,1298.80,1205.06,8235.00,993.00
522,875.60,1317.55,548.08,7537.00,990.50
531,877.04,1336.24,489.59,7749.00,974.50
540,878.47,1354.87,1033.88,8526.00,985.00
549,879.91,1373.43,1011.61,8597.50,1000.00
558,881.34,1391.93,1283.12,8834.00,959.00
567,882.78,1410.36,1593.87,9393.00,981.00
576,884.21,1428.73,5454.22,16087.00,1014.50
585,885.64,1447.03,21102.07,39417.00,979.00
594,887.08,1465.26,15031.85,30782.50,1009.50
603,888.51,1483.43,9422.36,20381.00,1006.50
612,889.94,1501.54,2326.60,10420.00,966.00
621,891.37,1519.58,698.23,7806.00,948.00
630,892.80,1537.56,121.61,6874.50,976.00
639,894.23,1555.46,0.00,6208.50,973.50
648,895.66,1573.31,34.65,5930.00,979.00
657,897.09,1591.09,0.00,5522.00,976.00
666,898.52,1608.80,57.41,5417.00,969.00
675,899.95,1626.44,137.92,5339.00,978.00
684,901.37,1644.02,328.49,5363.50,977.00
693,902.80,1661.54,291.55,5131.00,1008.50
702,904.22,1678.99,227.02,4799.00,963.00
711,905.64,1696.37,216.06,4597.50,994.00
720,907.07,1713.68,132.55,4252.00,972.50
729,908.49,1730.93,39.41,3938.50,985.00
738,909.91,1748.12,67.48,3749.00,972.00
747,911.33,1765.23,0.00,3477.50,968.00
756,912.75,1782.29,0.00,3323.50,967.00
765,914.16,1799.27,1.88,3226.50,976.00
774,915.58,1816.19,3.67,3103.50,958.50
783,916.99,1833.04,74.81,3110.00,984.00
792,918.41,1849.83,78.36,3009.50,977.50
801,919.82,1866.55,136.88,2973.00,975.50
810,921.23,1883.20,149.71,2912.50,987.50
819,922.64,1899.79,148.05,2787.50,956.00
828,924.05,1916.31,149.55,2722.50,984.00
837,925.46,1932.77,139.73,2607.00,977.00
846,926.86,1949.16,122.77,2507.50,982.50
855,928.27,1965.48,107.93,2373.00,954.50
864,929.67,1981.74,87.01,2285.00,981.00
873,931.07,1997.93,23.10,2145.50,991.00
882,932.47,2014.06,0.00,2021.50,978.00
891,933.87,2030.12,0.46,1952.50,982.00
900,935.27,2046.11,3.71,1901.00,999.00
909,936.66,2062.04,16.10,1844.00,1004.00
918,938.06,2077.91,23.54,1771.00,976.00
927,939.45,2093.70,22.62,1715.00,979.00
936,940.84,2109.44,0.23,1624.50,972.50
945,942.23,2125.10,0.55,1590.00,984.00
954,943.62,2140.70,0.09,1574.50,990.50
963,945.00,2156.24,0.21,1544.50,968.00
972,946.39,2171.71,56.59,1599.50,975.50
981,947.77,2187.12,146.53,1643.00,962.00
990,949.15,2202.46,68.98,1600.00,980.00
999,950.53,2217.73,94.31,1592.50,960.00
1008,951.90,2232.94,223.51,1700.50,964.00
1017,953.28,2248.09,326.65,1810.00,994.00
1026,954.65,2263.17,446.12,1872.00,968.50
1035,956.02,2278.19,435.89,1850.50,981.00
1044,957.39,2293.14,270.42,1708.00,979.00
1053,958.75,2308.03,210.74,1623.50,968.50
1062,960.12,2322.85,84.50,1512.50,963.00
1071,961.48,2337.61,25.07,1472.50,972.50
1080,962.84,2352.31,19.40,1457.50,974.00
1089,964.20,2366.94,0.00,1449.00,988.00
1098,965.56,2381.51,21.30,1471.00,991.00
1107,966.91,2396.01,23.43,1465.00,984.00
1116,968.26,2410.45,7.00,1469.00,992.50
1125,969.61,2424.83,71.71,1491.50,970.00
1134,970.96,2439.14,56.23,1487.00,979.50
1143,972.30,2453.39,0.00,1448.00,972.50
1152,973.65,2467.58,0.00,1468.00,975.00
1161,974.99,2481.70,0.00,1519.50,979.00
1170,976.33,2495.76,36.51,1651.00,989.50
1179,977.66,2509.76,151.75,1774.50,982.00
1188,979.00,2523.70,136.65,1834.50,988.50
1197,980.33,2537.57,0.00,1802.00,959.00
1206,981.66,2551.38,117.30,1982.50,1007.00
1215,982.98,2565.13,538.92,2216.00,970.00
1224,984.31,2578.82,175.68,2102.00,966.00
1233,985.63,2592.44,154.43,2111.50,959.00
1242,986.95,2606.01,0.00,2135.00,999.00
1251,988.27,2619.51,0.00,2297.50,998.00
1260,989.58,2632.95,782.00,2930.00,994.00
1269,990.89,2646.33,2236.94,3642.00,1036.00
1278,992.20,2659.65,0.00,2814.00,1002.00
1287,993.51,2672.91,16.15,3318.00,993.50
1296,994.81,2686.10,764.35,3963.50,1003.00
1305,996.12,2699.24,0.00,4051.50,1006.00
1314,997.41,2712.32,721.98,5197.50,1015.00
1323,998.71,2725.33,1406.02,5886.50,987.00
1332,1000.01,2738.29,1074.71,6153.50,1011.00
1341,1001.30,2751.18,3118.08,7087.50,1046.50
1350,1002.59,2764.02,1145.35,6840.50,1024.00
1359,1003.87,2776.79,7128.29,8342.00,1007.50
1368,1005.15,2789.51,9222.82,8989.50,1007.50
1377,1006.43,2802.17,18606.59,11828.50,1007.50
1386,1007.71,2814.77,31446.03,15059.50,1001.00
1395,1008.99,2827.30,24482.33,12823.50,994.50
1404,1010.26,2839.78,18245.05,10528.00,1016.00
1413,1011.53,2852.21,18008.25,10299.50,1004.00
1422,1012.80,2864.57,45071.61,17354.00,1038.00
1431,1014.06,2876.87,61791.62,21120.00,989.50
1440,1015.32,2889.12,58861.26,19576.50,1022.00
1449,1016.58,2901.31,53328.26,17900.50,1008.50
1458,1017.83,2913.44,67226.17,20699.50,998.00
1467,1019.09,2925.51,89500.97,24709.50,1019.00
1476,1020.33,2937.53,73860.36,20501.50,1029.50
1485,1021.58,2949.49,47678.95,14382.00,1011.50
1494,1022.82,2961.39,50581.82,14189.50,1000.00
1503,1024.07,2973.23,51482.76,13511.50,1037.00
1512,1025.30,2985.02,20451.96,7424.50,983.50
1521,1026.54,2996.75,6490.48,4359.50,1008.50
1530,1027.77,3008.43,834.56,3151.00,1006.50
1539,1029.00,3020.05,0.00,2477.00,985.00
1548,1030.22,3031.61,0.00,2113.50,988.50
1557,1031.45,3043.12,0.00,1876.00,1002.00
1566,1032.67,3054.57,38.25,1714.00,978.00
1575,1033.88,3065.97,0.00,1561.00,956.00
1584,1035.10,3077.31,0.00,1536.50,1009.50
1593,1036.31,3088.60,0.00,1471.50,1016.00
1602,1037.52,3099.83,37.77,1428.00,994.00
1611,1038.72,3111.00,0.00,1405.50,1017.00
1620,1039.92,3122.13,0.00,1367.00,1019.00
1629,1041.12,3133.20,73.31,1366.00,1024.00
1638,1042.32,3144.21,29.94,1330.50,999.00
1647,1043.51,3155.17,0.00,1327.00,1014.00
1656,1044.70,3166.08,0.00,1361.50,1038.00
1665,1045.88,3176.93,0.00,1354.00,1028.00
1674,1047.07,3187.73,27.53,1333.50,991.50
1683,1048.24,3198.48,91.80,1391.00,1028.50
1692,1049.42,3209.17,125.70,1394.50,1017.00
1701,1050.59,3219.81,241.58,1396.50,998.00
1710,1051.76,3230.40,281.90,1437.50,1024.50
1719,1052.93,3240.94,509.68,1418.00,987.00
1728,1054.10,3251.42,1408.79,1486.00,1006.00
1737,1055.26,3261.86,1992.69,1533.50,1026.50
1746,1056.41,3272.24,3034.88,1586.50,1031.50
1755,1057.57,3282.57,4142.33,1645.50,1043.00
1764,1058.72,3292.85,5699.01,1696.50,1013.50
1773,1059.87,3303.07,8695.13,1836.50,1011.00
1782,1061.01,3313.25,12461.53,2001.50,1015.00
1791,1062.15,3323.38,10845.89,1887.50,1007.00
1800,1063.29,3333.45,8261.54,1707.00,1003.00
1809,1064.42,3343.48,5370.99,1542.00,1007.50
1818,1065.55,3353.45,2498.40,1387.50,1009.50
1827,1066.68,3363.38,1284.46,1316.00,1006.50
1836,1067.81,3373.25,1003.95,1252.50,976.00
1845,1068.93,3383.08,865.63,1216.50,970.50
1854,1070.05,3392.85,357.99,1257.00,1047.50
1863,1071.16,3402.58,202.68,1180.50,1000.00
1872,1072.27,3412.26,260.71,1180.00,1010.50
1881,1073.38,3421.89,521.89,1135.00,973.50
1890,1074.49,3431.47,206.64,1133.50,995.00
1899,1075.59,3441.00,513.82,1130.00,996.00
1908,1076.69,3450.49,389.35,1138.50,1018.00
1917,1077.78,3459.93,88.84,1090.00,987.00
1926,1078.87,3469.32,846.50,1123.00,1011.50
1935,1079.96,3478.66,374.79,1084.50,992.00
1944,1081.05,3487.95,827.41,1112.00,1018.00
1953,1082.13,3497.20,610.36,1096.00,1015.00
1962,1083.21,3506.40,543.21,1072.00,992.00
1971,1084.28,3515.56,1079.87,1104.50,1022.50
1980,1085.36,3524.67,1191.16,1078.00,1003.00
1989,1086.42,3533.73,356.02,1048.00,989.50
1998,1087.49,3542.74,128.30,1048.00,999.00
2007,1088.55,3551.71,492.37,1037.00,986.00
2016,1089.61,3560.64,376.86,1030.00,983.00
2025,1090.67,3569.52,600.91,1046.50,999.00
2034,1091.72,3578.35,0.00,998.00,965.00
2043,1092.77,3587.14,0.00,997.00,964.00
2047,1093.23,3591.03,32.94,986.50,950.50