File: enlighten/plugins/Raman/MatchingLibrary/785X/glycerol.csv
ENLIGHTEN Version,4.1.22
Measurement ID,20250220-201622-634154-WP-01977
Serial Number,WP-01977
Model,WP-785X-F13-R-ILC
Detector,S16011-1106
Label,glycerol
Declared Match,
Declared Score,0
Scan Averaging,2
Boxcar,0
Technique,Raman
Baseline Correction Algo,AirPLS
ROI Pixel Start,47
ROI Pixel End,2047
ROI Start Line,0
ROI Stop Line,63
CCD C4,1.38617e-12
Slit Width,25
Cropped,True
Interpolated,False
Wavenumber Correction,-0.100481
Raman Intensity Corrected,True
Deconvolved,True
Region,
High Gain Mode,False
Laser Power mW,
Electrical Dark Correction,False
Battery %,
Device ID,<DeviceID USB:0x24aa:0x1000:0:1>
FW Version,10.0.0.10
FPGA Version,035-001
BLE Version,
Prefix,enlighten
Suffix,
Preset,
Auto-Raman,True
Session Count,0
Plugin Name,
Integration Time,784
Timestamp,2025-02-20 20:16:22.6342
Note,
Temperature,0
CCD C0,793.274
CCD C1,0.153259
CCD C2,1.40788e-05
CCD C3,-1.132e-08
CCD Offset,0
CCD Gain,1.9
CCD Offset Odd,0
CCD Gain Odd,1.9
Laser Wavelength,785.032
Laser Enable,False
Laser Power %,0
Laser Temperature,0
Pixel Count,2048

Pixel,Wavelength,Wavenumber,Processed,Raw,Dark
0,793.27,132.25,NA,1087.00,1027.50
9,794.65,154.15,NA,1119.50,1043.00
18,796.04,176.01,NA,1164.50,1069.00
27,797.42,197.83,NA,1193.50,1085.50
36,798.81,219.60,NA,1225.00,1052.00
45,800.20,241.33,NA,7585.00,1062.50
54,801.59,263.02,363.63,8343.00,1101.00
63,802.98,284.66,42.89,7939.50,1101.50
72,804.38,306.26,125.74,8022.50,1082.00
81,805.77,327.82,597.71,8587.00,1074.00
90,807.17,349.32,14.00,7846.50,1077.50
99,808.57,370.78,210.16,8314.00,1081.00
108,809.98,392.19,1236.87,9848.00,1056.00
117,811.38,413.56,6023.90,16462.00,1082.50
126,812.79,434.87,2628.47,12211.00,1070.00
135,814.19,456.14,1253.80,10388.00,1034.50
144,815.60,477.36,8783.33,21549.50,1071.00
153,817.01,498.52,6393.80,18534.00,1083.50
162,818.42,519.64,497.00,9646.50,1089.00
171,819.84,540.70,1124.63,10243.50,1035.00
180,821.25,561.71,1031.35,9861.00,1042.00
189,822.67,582.67,27.40,8004.00,1057.00
198,824.09,603.57,0.00,7559.50,1027.50
207,825.50,624.43,7.14,7660.00,1086.50
216,826.92,645.22,734.89,8777.00,1052.50
225,828.34,665.97,2667.78,11974.00,1028.50
234,829.77,686.66,2360.41,11648.50,1223.00
243,831.19,707.29,252.71,7979.50,1096.50
252,832.61,727.87,0.00,7456.50,1094.50
261,834.04,748.39,0.00,7340.50,1055.00
270,835.47,768.85,0.00,7737.50,1041.50
279,836.89,789.26,564.94,9232.50,1047.50
288,838.32,809.61,3903.12,15779.00,1068.50
297,839.75,829.90,8027.50,23373.00,1096.50
306,841.18,850.14,18333.57,39309.00,1084.50
315,842.61,870.31,9442.54,25429.00,1058.00
324,844.04,890.43,371.45,10827.50,1040.00
333,845.47,910.49,4860.10,17896.00,1055.00
342,846.90,930.49,6221.50,19702.50,1064.50
351,848.33,950.43,0.00,9317.00,1046.50
360,849.77,970.31,1696.92,12423.50,1060.50
369,851.20,990.12,335.63,10920.50,1064.50
378,852.63,1009.88,55.61,10817.00,1087.00
387,854.07,1029.58,6002.75,21043.50,1042.00
396,855.50,1049.21,16528.93,38519.50,1068.50
405,856.94,1068.79,15191.21,36656.50,1073.00
414,858.37,1088.30,11295.13,30180.00,1036.00
423,859.81,1107.75,10997.14,29853.50,1083.50
432,861.25,1127.14,4873.91,19926.50,1079.00
441,862.68,1146.46,36.39,11656.50,1046.50
450,864.12,1165.73,0.00,11503.50,1055.00
459,865.55,1184.93,575.82,13105.50,1010.50
468,866.99,1204.06,2878.24,17215.50,1057.00
477,868.43,1223.14,4205.19,19840.00,1050.50
486,869.86,1242.15,6886.89,24433.00,1063.00
495,871.30,1261.10,7916.62,26460.00,1051.00
504,872.73,1279.98,7387.93,25797.50,1058.00
513,874.17,1298.80,6510.89,24761.00,1059.50
522,875.60,1317.55,7921.69,27084.50,1060.00
531,877.04,1336.24,7213.00,26313.00,1029.50
540,878.47,1354.87,7586.32,27057.00,1043.00
549,879.91,1373.43,7412.39,26964.00,1044.00
558,881.34,1391.93,6639.90,25935.50,1007.00
567,882.78,1410.36,5621.10,24548.00,1023.50
576,884.21,1428.73,4656.59,23397.00,1072.00
585,885.64,1447.03,6993.58,27714.50,1025.00
594,887.08,1465.26,18635.43,44227.00,1069.50
603,888.51,1483.43,6765.55,27526.00,1051.00
612,889.94,1501.54,380.28,17703.50,1013.00
621,891.37,1519.58,0.00,16468.50,992.50
630,892.80,1537.56,12.50,15962.50,1034.50
639,894.23,1555.46,0.00,15310.50,1026.50
648,895.66,1573.31,77.46,15142.50,1035.50
657,897.09,1591.09,51.16,14724.50,1017.00
666,898.52,1608.80,221.16,14576.50,1024.00
675,899.95,1626.44,384.42,14450.00,1027.50
684,901.37,1644.02,305.42,14015.00,1044.50
693,902.80,1661.54,515.87,13904.50,1068.00
702,904.22,1678.99,216.27,13138.00,1019.00
711,905.64,1696.37,266.08,12867.50,1044.50
720,907.07,1713.68,154.68,12354.50,1024.00
729,908.49,1730.93,19.40,11830.50,1035.00
738,909.91,1748.12,51.96,11519.50,1033.50
747,911.33,1765.23,0.00,11057.00,1037.00
756,912.75,1782.29,36.12,10831.00,1016.00
765,914.16,1799.27,193.59,10710.50,1025.50
774,915.58,1816.19,41.70,10276.50,1015.00
783,916.99,1833.04,258.19,10254.00,1037.00
792,918.41,1849.83,253.78,9968.50,1047.50
801,919.82,1866.55,347.90,9755.50,1027.50
810,921.23,1883.20,492.45,9661.50,1050.50
819,922.64,1899.79,407.37,9225.50,1008.50
828,924.05,1916.31,410.39,8952.50,1021.00
837,925.46,1932.77,436.69,8699.50,1037.00
846,926.86,1949.16,320.49,8285.50,1027.50
855,928.27,1965.48,245.10,7930.00,1007.50
864,929.67,1981.74,168.02,7597.00,1029.00
873,931.07,1997.93,6.98,7161.50,1044.00
882,932.47,2014.06,110.69,6962.50,1023.00
891,933.87,2030.12,58.17,6655.00,1031.50
900,935.27,2046.11,1.99,6414.50,1084.00
909,936.66,2062.04,93.49,6259.00,1060.00
918,938.06,2077.91,45.64,5993.00,1026.50
927,939.45,2093.70,23.79,5811.50,1036.00
936,940.84,2109.44,60.28,5700.50,1024.50
945,942.23,2125.10,68.91,5575.50,1039.00
954,943.62,2140.70,19.73,5432.00,1050.50
963,945.00,2156.24,23.48,5286.00,1009.50
972,946.39,2171.71,113.67,5258.50,1033.50
981,947.77,2187.12,36.15,5094.00,1009.50
990,949.15,2202.46,52.08,5038.00,1037.00
999,950.53,2217.73,51.45,4927.50,1012.00
1008,951.90,2232.94,81.39,4865.50,1003.00
1017,953.28,2248.09,56.72,4803.50,1049.50
1026,954.65,2263.17,6.47,4648.00,1017.00
1035,956.02,2278.19,0.00,4563.50,1041.00
1044,957.39,2293.14,68.76,4562.00,1037.00
1053,958.75,2308.03,41.59,4492.50,1028.50
1062,960.12,2322.85,20.99,4418.00,1017.00
1071,961.48,2337.61,39.34,4379.50,1018.00
1080,962.84,2352.31,157.06,4405.50,1023.50
1089,964.20,2366.94,140.43,4367.00,1042.50
1098,965.56,2381.51,277.04,4387.00,1037.00
1107,966.91,2396.01,128.20,4241.00,1042.00
1116,968.26,2410.45,31.53,4125.00,1033.00
1125,969.61,2424.83,0.00,4016.50,1015.00
1134,970.96,2439.14,121.92,4058.50,1020.00
1143,972.30,2453.39,44.70,3998.50,1029.00
1152,973.65,2467.58,0.00,3889.50,1030.00
1161,974.99,2481.70,115.89,3955.00,1027.50
1170,976.33,2495.76,15.15,3887.50,1036.00
1179,977.66,2509.76,76.07,3903.50,1040.00
1188,979.00,2523.70,149.18,3932.00,1048.50
1197,980.33,2537.57,252.58,3914.00,1008.50
1206,981.66,2551.38,114.20,3853.50,1055.50
1215,982.98,2565.13,143.55,3791.50,1021.00
1224,984.31,2578.82,102.66,3744.50,1014.00
1233,985.63,2592.44,48.94,3711.00,1031.50
1242,986.95,2606.01,4.14,3714.00,1075.00
1251,988.27,2619.51,19.66,3723.50,1068.00
1260,989.58,2632.95,16.88,3727.00,1062.00
1269,990.89,2646.33,0.00,3757.50,1093.00
1278,992.20,2659.65,0.00,3807.00,1054.00
1287,993.51,2672.91,56.03,3945.50,1061.00
1296,994.81,2686.10,0.00,4030.00,1048.50
1305,996.12,2699.24,0.00,4194.00,1061.00
1314,997.41,2712.32,376.40,4556.00,1078.50
1323,998.71,2725.33,1292.06,5018.00,1036.00
1332,1000.01,2738.29,1549.24,5311.50,1083.50
1341,1001.30,2751.18,1497.85,5430.00,1121.50
1350,1002.59,2764.02,911.76,5294.00,1085.50
1359,1003.87,2776.79,153.31,5150.00,1062.00
1368,1005.15,2789.51,0.00,5151.00,1066.50
1377,1006.43,2802.17,0.00,5470.00,1060.00
1386,1007.71,2814.77,0.00,6100.00,1030.50
1395,1008.99,2827.30,0.00,7042.50,1043.50
1404,1010.26,2839.78,2141.56,8417.00,1074.00
1413,1011.53,2852.21,10260.47,10351.00,1057.50
1422,1012.80,2864.57,23965.54,13825.50,1106.50
1431,1014.06,2876.87,43805.88,18440.00,1037.00
1440,1015.32,2889.12,54695.27,20541.00,1077.00
1449,1016.58,2901.31,50107.18,18785.50,1064.50
1458,1017.83,2913.44,46752.86,17243.00,1048.50
1467,1019.09,2925.51,48170.04,16934.50,1072.00
1476,1020.33,2937.53,53424.08,17402.50,1099.00
1485,1021.58,2949.49,53058.49,16613.50,1079.00
1494,1022.82,2961.39,46340.75,14488.50,1062.50
1503,1024.07,2973.23,31226.90,10885.00,1098.50
1512,1025.30,2985.02,13987.85,7049.50,1044.00
1521,1026.54,2996.75,3657.76,4782.50,1071.00
1530,1027.77,3008.43,0.55,3628.50,1064.50
1539,1029.00,3020.05,0.00,3035.50,1029.00
1548,1030.22,3031.61,0.00,2760.00,1046.50
1557,1031.45,3043.12,0.00,2632.00,1063.50
1566,1032.67,3054.57,17.13,2568.00,1039.50
1575,1033.88,3065.97,1.49,2493.00,1001.00
1584,1035.10,3077.31,0.00,2527.50,1072.00
1593,1036.31,3088.60,0.00,2533.00,1073.00
1602,1037.52,3099.83,69.73,2571.00,1050.00
1611,1038.72,3111.00,155.13,2635.50,1070.50
1620,1039.92,3122.13,137.54,2692.00,1083.50
1629,1041.12,3133.20,305.19,2748.50,1081.00
1638,1042.32,3144.21,0.00,2730.50,1060.00
1647,1043.51,3155.17,175.13,2837.00,1068.50
1656,1044.70,3166.08,141.55,2922.00,1113.00
1665,1045.88,3176.93,586.39,2967.00,1093.00
1674,1047.07,3187.73,2034.83,3003.00,1050.00
1683,1048.24,3198.48,3662.13,3112.00,1085.50
1692,1049.42,3209.17,5495.55,3167.00,1072.00
1701,1050.59,3219.81,6709.18,3169.00,1056.00
1710,1051.76,3230.40,8266.17,3245.00,1097.00
1719,1052.93,3240.94,9461.80,3195.50,1036.50
1728,1054.10,3251.42,11096.89,3261.00,1075.00
1737,1055.26,3261.86,12198.25,3248.50,1088.50
1746,1056.41,3272.24,12895.76,3235.50,1111.00
1755,1057.57,3282.57,14244.15,3231.50,1122.50
1764,1058.72,3292.85,12929.56,3043.00,1095.00
1773,1059.87,3303.07,13942.10,2981.50,1064.50
1782,1061.01,3313.25,13970.56,2914.50,1079.00
1791,1062.15,3323.38,14131.37,2828.50,1058.00
1800,1063.29,3333.45,14334.32,2755.00,1057.00
1809,1064.42,3343.48,15220.95,2734.50,1073.00
1818,1065.55,3353.45,14384.32,2629.50,1070.50
1827,1066.68,3363.38,15270.05,2595.50,1074.00
1836,1067.81,3373.25,14603.23,2464.50,1032.00
1845,1068.93,3383.08,15223.68,2431.50,1039.00
1854,1070.05,3392.85,15046.00,2438.00,1114.00
1863,1071.16,3402.58,14375.42,2299.50,1063.00
1872,1072.27,3412.26,14253.11,2247.50,1066.50
1881,1073.38,3421.89,12625.62,2105.00,1028.50
1890,1074.49,3431.47,12358.67,2060.00,1044.50
1899,1075.59,3441.00,12318.23,2026.00,1050.50
1908,1076.69,3450.49,12461.89,1999.50,1077.00
1917,1077.78,3459.93,9867.27,1861.00,1040.00
1926,1078.87,3469.32,10122.31,1865.50,1075.00
1935,1079.96,3478.66,8356.03,1759.50,1047.00
1944,1081.05,3487.95,8642.04,1757.50,1078.00
1953,1082.13,3497.20,7348.74,1694.00,1068.50
1962,1083.21,3506.40,5291.07,1597.00,1045.50
1971,1084.28,3515.56,4703.80,1608.50,1095.00
1980,1085.36,3524.67,4063.71,1540.00,1064.00
1989,1086.42,3533.73,3030.34,1476.50,1043.50
1998,1087.49,3542.74,1981.33,1448.00,1065.50
2007,1088.55,3551.71,1908.45,1387.00,1035.00
2016,1089.61,3560.64,2822.86,1359.50,1031.00
2025,1090.67,3569.52,999.81,1345.50,1059.00
2034,1091.72,3578.35,1918.86,1257.50,991.50
2043,1092.77,3587.14,0.00,1219.00,1006.00
2047,1093.23,3591.03,0.00,1180.00,973.50