File: enlighten/plugins/Raman/MatchingLibrary/785X/methyl isobutyl ketone.csv
ENLIGHTEN Version,4.1.22
Measurement ID,20250220-195424-806915-WP-01977
Serial Number,WP-01977
Model,WP-785X-F13-R-ILC
Detector,S16011-1106
Label,methyl isobutyl ketone
Declared Match,
Declared Score,0
Scan Averaging,2
Boxcar,0
Technique,Raman
Baseline Correction Algo,AirPLS
ROI Pixel Start,47
ROI Pixel End,2047
ROI Start Line,0
ROI Stop Line,63
CCD C4,1.38617e-12
Slit Width,25
Cropped,True
Interpolated,False
Wavenumber Correction,-0.100481
Raman Intensity Corrected,True
Deconvolved,True
Region,
High Gain Mode,False
Laser Power mW,
Electrical Dark Correction,False
Battery %,
Device ID,<DeviceID USB:0x24aa:0x1000:0:1>
FW Version,10.0.0.10
FPGA Version,035-001
BLE Version,
Prefix,enlighten
Suffix,
Preset,
Auto-Raman,True
Session Count,0
Plugin Name,
Integration Time,760
Timestamp,2025-02-20 19:54:24.8069
Note,
Temperature,0
CCD C0,793.274
CCD C1,0.153259
CCD C2,1.40788e-05
CCD C3,-1.132e-08
CCD Offset,0
CCD Gain,1.9
CCD Offset Odd,0
CCD Gain Odd,1.9
Laser Wavelength,785.032
Laser Enable,False
Laser Power %,0
Laser Temperature,0
Pixel Count,2048

Pixel,Wavelength,Wavenumber,Processed,Raw,Dark
0,793.27,132.25,NA,1081.50,1018.00
9,794.65,154.15,NA,1097.50,1030.00
18,796.04,176.01,NA,1133.00,1064.00
27,797.42,197.83,NA,1153.00,1070.50
36,798.81,219.60,NA,1155.00,1043.50
45,800.20,241.33,NA,4353.50,1050.00
54,801.59,263.02,132.02,4612.00,1094.00
63,802.98,284.66,32.01,4482.00,1070.00
72,804.38,306.26,3235.61,9427.50,1072.00
81,805.77,327.82,6783.83,14213.00,1055.00
90,807.17,349.32,2909.48,7993.00,1062.00
99,808.57,370.78,669.55,5039.50,1078.50
108,809.98,392.19,603.95,4866.00,1048.50
117,811.38,413.56,5353.87,11656.00,1086.50
126,812.79,434.87,4661.73,10572.00,1064.00
135,814.19,456.14,974.69,5185.00,1035.00
144,815.60,477.36,1572.91,5822.00,1070.00
153,817.01,498.52,627.95,4426.50,1070.00
162,818.42,519.64,1053.50,5085.50,1073.00
171,819.84,540.70,738.77,4452.00,1028.50
180,821.25,561.71,1101.72,4875.00,1024.00
189,822.67,582.67,5690.24,13936.00,1052.50
198,824.09,603.57,6896.62,17102.50,1047.00
207,825.50,624.43,762.37,3921.50,1073.00
216,826.92,645.22,139.38,2673.00,1038.00
225,828.34,665.97,0.00,2193.00,1014.00
234,829.77,686.66,0.00,2196.00,1072.00
243,831.19,707.29,0.00,2237.00,1078.50
252,832.61,727.87,72.86,2606.00,1078.50
261,834.04,748.39,1220.60,4658.00,1038.00
270,835.47,768.85,3868.01,9745.50,1030.50
279,836.89,789.26,19771.14,35123.50,1053.00
288,838.32,809.61,12289.18,24987.00,1051.50
297,839.75,829.90,10278.54,21608.50,1096.00
306,841.18,850.14,4261.94,11104.00,1074.00
315,842.61,870.31,1498.62,5998.50,1065.00
324,844.04,890.43,303.01,4138.00,1033.00
333,845.47,910.49,577.22,4699.00,1030.00
342,846.90,930.49,3314.84,9739.50,1061.50
351,848.33,950.43,11274.66,22555.50,1044.50
360,849.77,970.31,6049.99,14464.50,1047.50
369,851.20,990.12,5468.01,12570.00,1060.50
378,852.63,1009.88,1189.16,5681.50,1079.00
387,854.07,1029.58,134.17,3631.50,1033.00
396,855.50,1049.21,0.00,3304.50,1043.50
405,856.94,1068.79,0.00,3589.50,1046.50
414,858.37,1088.30,395.16,4605.50,1020.00
423,859.81,1107.75,3769.25,11024.50,1092.00
432,861.25,1127.14,12050.26,23055.00,1081.00
441,862.68,1146.46,1492.83,7439.50,1024.50
450,864.12,1165.73,5030.87,13449.00,1053.50
459,865.55,1184.93,2550.34,9943.50,1014.00
468,866.99,1204.06,2861.10,9923.50,1050.50
477,868.43,1223.14,1653.51,8861.50,1038.00
486,869.86,1242.15,2191.04,9723.00,1033.50
495,871.30,1261.10,30.02,6514.00,1035.00
504,872.73,1279.98,1916.00,9602.50,1043.00
513,874.17,1298.80,2377.65,10528.00,1045.50
522,875.60,1317.55,2414.52,10782.00,1050.50
531,877.04,1336.24,8938.49,20102.00,1019.00
540,878.47,1354.87,5259.17,15206.00,1034.50
549,879.91,1373.43,4492.60,14131.50,1039.00
558,881.34,1391.93,4618.11,14534.50,999.00
567,882.78,1410.36,11348.17,24150.00,1021.00
576,884.21,1428.73,12650.01,26383.00,1056.00
585,885.64,1447.03,19303.05,36007.00,1029.50
594,887.08,1465.26,22028.43,38588.00,1066.50
603,888.51,1483.43,4474.72,14495.00,1045.50
612,889.94,1501.54,1677.47,9983.00,999.50
621,891.37,1519.58,784.80,8620.50,995.00
630,892.80,1537.56,194.66,7860.00,1028.50
639,894.23,1555.46,0.00,7157.50,1018.00
648,895.66,1573.31,8.19,6726.50,1019.00
657,897.09,1591.09,0.00,6313.00,1016.00
666,898.52,1608.80,0.00,6024.50,1020.00
675,899.95,1626.44,38.79,5967.00,1006.00
684,901.37,1644.02,70.35,5961.50,1034.00
693,902.80,1661.54,451.55,6319.50,1062.00
702,904.22,1678.99,1151.04,6995.00,999.00
711,905.64,1696.37,3650.83,10958.00,1037.00
720,907.07,1713.68,16427.40,26229.00,1022.00
729,908.49,1730.93,3096.58,9659.00,1021.00
738,909.91,1748.12,665.78,5581.00,1020.00
747,911.33,1765.23,196.28,4715.00,1014.00
756,912.75,1782.29,13.70,4261.50,1004.00
765,914.16,1799.27,0.00,3962.50,1011.50
774,915.58,1816.19,0.00,3717.50,996.00
783,916.99,1833.04,31.11,3667.50,1031.00
792,918.41,1849.83,70.02,3569.50,1030.50
801,919.82,1866.55,85.98,3445.00,1017.00
810,921.23,1883.20,189.17,3458.50,1046.50
819,922.64,1899.79,228.05,3311.00,991.50
828,924.05,1916.31,241.04,3205.00,1014.50
837,925.46,1932.77,198.25,3040.50,1027.50
846,926.86,1949.16,140.59,2858.50,1038.00
855,928.27,1965.48,155.65,2707.50,995.00
864,929.67,1981.74,143.22,2591.00,1025.00
873,931.07,1997.93,44.80,2381.00,1036.00
882,932.47,2014.06,31.54,2224.50,1010.00
891,933.87,2030.12,18.97,2105.50,1027.50
900,935.27,2046.11,15.16,2027.00,1057.50
909,936.66,2062.04,6.58,1932.00,1045.50
918,938.06,2077.91,28.00,1853.50,1020.00
927,939.45,2093.70,0.00,1765.00,1025.50
936,940.84,2109.44,26.88,1747.00,1011.50
945,942.23,2125.10,45.06,1741.50,1034.00
954,943.62,2140.70,0.00,1657.00,1035.00
963,945.00,2156.24,0.00,1601.00,1012.50
972,946.39,2171.71,0.00,1583.00,1014.50
981,947.77,2187.12,8.18,1590.50,999.00
990,949.15,2202.46,48.44,1651.50,1023.00
999,950.53,2217.73,84.96,1676.00,1009.50
1008,951.90,2232.94,163.84,1707.00,988.50
1017,953.28,2248.09,66.79,1691.00,1044.00
1026,954.65,2263.17,26.96,1618.00,1014.00
1035,956.02,2278.19,44.38,1641.50,1025.50
1044,957.39,2293.14,132.13,1710.00,1032.00
1053,958.75,2308.03,118.93,1686.50,1017.00
1062,960.12,2322.85,295.83,1798.50,1010.50
1071,961.48,2337.61,233.52,1770.00,1016.00
1080,962.84,2352.31,162.64,1706.50,1021.00
1089,964.20,2366.94,95.93,1667.50,1035.00
1098,965.56,2381.51,182.82,1703.50,1027.50
1107,966.91,2396.01,157.25,1682.50,1025.00
1116,968.26,2410.45,224.56,1710.00,1019.00
1125,969.61,2424.83,68.24,1587.50,1004.00
1134,970.96,2439.14,3.24,1559.00,1020.50
1143,972.30,2453.39,43.49,1578.50,1012.00
1152,973.65,2467.58,4.10,1554.50,1016.00
1161,974.99,2481.70,90.84,1602.50,1020.00
1170,976.33,2495.76,27.89,1581.50,1030.50
1179,977.66,2509.76,0.54,1579.00,1030.50
1188,979.00,2523.70,108.11,1680.00,1040.50
1197,980.33,2537.57,260.49,1759.50,1020.00
1206,981.66,2551.38,351.94,1856.00,1042.50
1215,982.98,2565.13,465.94,1915.00,1017.00
1224,984.31,2578.82,371.50,1874.00,1016.00
1233,985.63,2592.44,61.23,1723.00,1010.00
1242,986.95,2606.01,0.00,1741.50,1061.00
1251,988.27,2619.51,0.00,1816.50,1054.00
1260,989.58,2632.95,282.61,2082.00,1051.50
1269,990.89,2646.33,671.38,2403.00,1097.50
1278,992.20,2659.65,337.09,2312.00,1046.00
1287,993.51,2672.91,33.82,2269.00,1048.00
1296,994.81,2686.10,940.96,2725.50,1050.00
1305,996.12,2699.24,1504.44,3050.00,1057.00
1314,997.41,2712.32,3681.79,4133.50,1067.50
1323,998.71,2725.33,8174.74,5524.00,1043.00
1332,1000.01,2738.29,1575.48,3288.50,1074.00
1341,1001.30,2751.18,220.07,2867.00,1112.00
1350,1002.59,2764.02,4361.36,4024.00,1076.00
1359,1003.87,2776.79,55.89,2860.50,1051.00
1368,1005.15,2789.51,0.00,2780.00,1061.00
1377,1006.43,2802.17,309.97,3349.50,1059.50
1386,1007.71,2814.77,0.00,3574.50,1024.00
1395,1008.99,2827.30,726.60,4698.00,1041.00
1404,1010.26,2839.78,6983.21,6396.00,1061.50
1413,1011.53,2852.21,14861.36,8708.00,1054.00
1422,1012.80,2864.57,48199.16,19632.00,1104.50
1431,1014.06,2876.87,128921.82,37401.50,1041.00
1440,1015.32,2889.12,96815.56,29904.50,1079.50
1449,1016.58,2901.31,113508.45,32878.00,1065.50
1458,1017.83,2913.44,142650.24,38732.50,1041.00
1467,1019.09,2925.51,139875.43,36427.50,1065.50
1476,1020.33,2937.53,89201.92,24269.00,1095.00
1485,1021.58,2949.49,64707.88,18618.50,1077.00
1494,1022.82,2961.39,82609.61,20513.00,1052.00
1503,1024.07,2973.23,55301.97,15007.00,1105.00
1512,1025.30,2985.02,29753.89,9449.00,1034.00
1521,1026.54,2996.75,18489.26,6952.50,1056.00
1530,1027.77,3008.43,12474.85,5584.00,1059.00
1539,1029.00,3020.05,3585.66,3897.00,1034.00
1548,1030.22,3031.61,11.00,2981.00,1032.00
1557,1031.45,3043.12,0.00,2484.50,1061.00
1566,1032.67,3054.57,0.00,2206.50,1041.00
1575,1033.88,3065.97,0.00,1955.00,995.00
1584,1035.10,3077.31,162.57,1910.50,1061.00
1593,1036.31,3088.60,0.00,1765.00,1065.50
1602,1037.52,3099.83,46.99,1689.00,1047.50
1611,1038.72,3111.00,0.00,1636.00,1076.00
1620,1039.92,3122.13,11.52,1588.50,1066.00
1629,1041.12,3133.20,103.47,1582.50,1087.00
1638,1042.32,3144.21,216.53,1519.50,1038.00
1647,1043.51,3155.17,381.66,1534.00,1052.50
1656,1044.70,3166.08,138.14,1531.00,1096.50
1665,1045.88,3176.93,526.39,1541.00,1089.00
1674,1047.07,3187.73,682.22,1489.50,1044.50
1683,1048.24,3198.48,848.96,1535.00,1093.00
1692,1049.42,3209.17,1061.35,1524.00,1084.50
1701,1050.59,3219.81,1112.01,1474.50,1051.00
1710,1051.76,3230.40,1633.69,1522.00,1078.00
1719,1052.93,3240.94,1518.68,1441.50,1030.00
1728,1054.10,3251.42,1493.02,1453.00,1062.00
1737,1055.26,3261.86,1583.57,1458.50,1080.00
1746,1056.41,3272.24,1755.14,1466.00,1094.00
1755,1057.57,3282.57,1958.97,1462.50,1095.00
1764,1058.72,3292.85,1594.84,1407.00,1077.00
1773,1059.87,3303.07,1671.48,1381.50,1060.50
1782,1061.01,3313.25,1740.84,1368.50,1061.50
1791,1062.15,3323.38,1847.91,1342.50,1051.00
1800,1063.29,3333.45,1152.24,1309.50,1060.50
1809,1064.42,3343.48,1688.70,1328.50,1072.00
1818,1065.55,3353.45,1825.42,1300.00,1050.50
1827,1066.68,3363.38,1861.17,1307.50,1063.50
1836,1067.81,3373.25,1539.47,1245.00,1029.00
1845,1068.93,3383.08,1373.62,1236.50,1035.00
1854,1070.05,3392.85,1328.38,1299.00,1111.00
1863,1071.16,3402.58,1711.71,1252.50,1062.00
1872,1072.27,3412.26,1410.44,1229.50,1057.00
1881,1073.38,3421.89,1575.95,1189.00,1019.00
1890,1074.49,3431.47,1429.28,1190.00,1035.50
1899,1075.59,3441.00,1243.19,1190.00,1047.50
1908,1076.69,3450.49,1420.04,1206.00,1065.00
1917,1077.78,3459.93,1545.00,1168.00,1029.50
1926,1078.87,3469.32,1494.89,1195.50,1061.50
1935,1079.96,3478.66,1043.25,1154.50,1044.50
1944,1081.05,3487.95,1325.21,1184.50,1072.50
1953,1082.13,3497.20,817.81,1163.50,1066.50
1962,1083.21,3506.40,792.44,1132.00,1041.50
1971,1084.28,3515.56,1257.84,1186.00,1092.00
1980,1085.36,3524.67,802.97,1148.00,1062.50
1989,1086.42,3533.73,1155.16,1117.00,1035.00
1998,1087.49,3542.74,1680.95,1141.50,1049.00
2007,1088.55,3551.71,1322.97,1092.00,1016.00
2016,1089.61,3560.64,476.44,1096.00,1029.00
2025,1090.67,3569.52,1722.33,1112.00,1038.00
2034,1091.72,3578.35,335.05,1052.00,999.00
2043,1092.77,3587.14,0.00,1054.00,1010.00
2047,1093.23,3591.03,128.93,1032.50,982.50