File: enlighten/plugins/Raman/MatchingLibrary/785X/n-butyl acetate.csv
ENLIGHTEN Version,4.1.22
Measurement ID,20250220-200657-363996-WP-01977
Serial Number,WP-01977
Model,WP-785X-F13-R-ILC
Detector,S16011-1106
Label,n-butyl acetate
Declared Match,
Declared Score,0
Scan Averaging,2
Boxcar,0
Technique,Raman
Baseline Correction Algo,AirPLS
ROI Pixel Start,47
ROI Pixel End,2047
ROI Start Line,0
ROI Stop Line,63
CCD C4,1.38617e-12
Slit Width,25
Cropped,True
Interpolated,False
Wavenumber Correction,-0.100481
Raman Intensity Corrected,True
Deconvolved,True
Region,
High Gain Mode,False
Laser Power mW,
Electrical Dark Correction,False
Battery %,
Device ID,<DeviceID USB:0x24aa:0x1000:0:1>
FW Version,10.0.0.10
FPGA Version,035-001
BLE Version,
Prefix,enlighten
Suffix,
Preset,
Auto-Raman,True
Session Count,0
Plugin Name,
Integration Time,808
Timestamp,2025-02-20 20:06:57.364
Note,
Temperature,0
CCD C0,793.274
CCD C1,0.153259
CCD C2,1.40788e-05
CCD C3,-1.132e-08
CCD Offset,0
CCD Gain,1.9
CCD Offset Odd,0
CCD Gain Odd,1.9
Laser Wavelength,785.032
Laser Enable,False
Laser Power %,0
Laser Temperature,0
Pixel Count,2048

Pixel,Wavelength,Wavenumber,Processed,Raw,Dark
0,793.27,132.25,NA,1101.50,1029.50
9,794.65,154.15,NA,1132.50,1046.50
18,796.04,176.01,NA,1160.50,1064.00
27,797.42,197.83,NA,1188.00,1090.00
36,798.81,219.60,NA,1200.50,1067.50
45,800.20,241.33,NA,6274.00,1065.50
54,801.59,263.02,1968.08,8370.00,1117.50
63,802.98,284.66,2394.76,8892.00,1109.00
72,804.38,306.26,11979.59,20200.50,1089.50
81,805.77,327.82,7111.46,14444.00,1063.00
90,807.17,349.32,1595.47,7003.00,1070.50
99,808.57,370.78,0.00,4232.00,1078.00
108,809.98,392.19,277.17,4463.00,1060.50
117,811.38,413.56,570.04,4823.50,1087.50
126,812.79,434.87,2110.48,6544.50,1061.50
135,814.19,456.14,0.00,3263.00,1035.00
144,815.60,477.36,1251.19,4931.50,1081.50
153,817.01,498.52,1508.75,5294.50,1088.00
162,818.42,519.64,809.48,4059.00,1083.50
171,819.84,540.70,0.00,2416.50,1047.50
180,821.25,561.71,0.00,2292.00,1037.00
189,822.67,582.67,177.42,2649.50,1050.50
198,824.09,603.57,2318.83,6004.00,1036.00
207,825.50,624.43,6607.53,15188.50,1093.00
216,826.92,645.22,12136.75,22766.50,1065.00
225,828.34,665.97,854.23,3907.50,1035.00
234,829.77,686.66,68.22,2545.00,1140.50
243,831.19,707.29,0.00,2314.50,1097.00
252,832.61,727.87,4.13,2688.50,1093.00
261,834.04,748.39,214.62,3297.00,1056.00
270,835.47,768.85,179.18,3521.00,1034.00
279,836.89,789.26,2179.36,7096.00,1064.50
288,838.32,809.61,7759.16,15801.00,1064.50
297,839.75,829.90,10252.47,21837.00,1109.00
306,841.18,850.14,8401.87,18966.50,1080.00
315,842.61,870.31,3187.38,9406.00,1069.50
324,844.04,890.43,4331.53,11315.50,1053.00
333,845.47,910.49,9055.17,19313.50,1063.50
342,846.90,930.49,6811.75,15772.00,1072.00
351,848.33,950.43,5091.07,11864.50,1068.50
360,849.77,970.31,3459.43,9453.50,1057.00
369,851.20,990.12,2616.85,8405.00,1072.50
378,852.63,1009.88,2919.04,8972.50,1105.00
387,854.07,1029.58,8536.48,17190.00,1060.50
396,855.50,1049.21,5020.76,12712.00,1069.00
405,856.94,1068.79,8591.54,17517.50,1084.50
414,858.37,1088.30,1660.98,6816.50,1024.00
423,859.81,1107.75,1584.05,7079.00,1087.00
432,861.25,1127.14,7675.89,15990.00,1090.00
441,862.68,1146.46,2536.94,8389.50,1045.50
450,864.12,1165.73,452.76,4957.50,1063.00
459,865.55,1184.93,0.00,3877.50,998.00
468,866.99,1204.06,165.69,4672.50,1050.50
477,868.43,1223.14,2506.21,8756.00,1039.50
486,869.86,1242.15,3520.62,10598.00,1052.50
495,871.30,1261.10,4178.54,11590.50,1040.00
504,872.73,1279.98,3672.95,11415.00,1062.00
513,874.17,1298.80,12554.53,24672.00,1050.00
522,875.60,1317.55,4856.34,13853.00,1052.50
531,877.04,1336.24,2776.91,10099.00,1030.00
540,878.47,1354.87,3238.92,10997.50,1046.50
549,879.91,1373.43,3975.13,12272.00,1062.50
558,881.34,1391.93,3943.49,12219.50,1019.50
567,882.78,1410.36,4062.19,12754.00,1024.00
576,884.21,1428.73,10813.48,23972.00,1079.00
585,885.64,1447.03,23493.61,42429.50,1035.00
594,887.08,1465.26,16749.64,32604.50,1082.00
603,888.51,1483.43,7741.59,18731.50,1062.50
612,889.94,1501.54,3006.88,11626.50,1017.00
621,891.37,1519.58,1670.66,9625.50,1009.50
630,892.80,1537.56,972.97,8713.50,1031.00
639,894.23,1555.46,254.60,7763.50,1024.50
648,895.66,1573.31,0.00,6972.50,1040.50
657,897.09,1591.09,0.00,6441.50,1019.00
666,898.52,1608.80,0.00,6121.00,1023.00
675,899.95,1626.44,25.53,5954.00,1020.00
684,901.37,1644.02,2.33,5775.50,1040.00
693,902.80,1661.54,158.44,5815.50,1078.50
702,904.22,1678.99,247.51,5676.00,1015.50
711,905.64,1696.37,653.43,6054.50,1056.00
720,907.07,1713.68,1413.92,6968.50,1025.00
729,908.49,1730.93,9417.69,17518.50,1039.50
738,909.91,1748.12,9014.00,16594.50,1039.50
747,911.33,1765.23,976.87,5823.00,1033.00
756,912.75,1782.29,213.12,4473.00,1016.00
765,914.16,1799.27,12.26,4028.00,1025.00
774,915.58,1816.19,0.00,3745.00,1011.00
783,916.99,1833.04,32.62,3689.00,1046.50
792,918.41,1849.83,0.00,3501.00,1057.00
801,919.82,1866.55,63.78,3438.50,1026.50
810,921.23,1883.20,123.62,3419.00,1053.00
819,922.64,1899.79,150.98,3271.50,1005.00
828,924.05,1916.31,110.94,3123.50,1028.50
837,925.46,1932.77,109.27,3013.00,1038.00
846,926.86,1949.16,141.96,2920.00,1031.50
855,928.27,1965.48,112.01,2744.50,1007.50
864,929.67,1981.74,103.25,2641.50,1035.00
873,931.07,1997.93,44.67,2495.00,1050.00
882,932.47,2014.06,42.04,2355.50,1028.50
891,933.87,2030.12,5.63,2225.50,1041.00
900,935.27,2046.11,0.00,2144.00,1081.00
909,936.66,2062.04,12.38,2082.00,1073.00
918,938.06,2077.91,37.23,1985.50,1025.50
927,939.45,2093.70,52.24,1924.50,1032.00
936,940.84,2109.44,0.00,1787.00,1034.00
945,942.23,2125.10,38.17,1781.00,1046.50
954,943.62,2140.70,0.00,1688.50,1044.50
963,945.00,2156.24,0.00,1615.00,1020.00
972,946.39,2171.71,43.93,1675.50,1038.00
981,947.77,2187.12,175.95,1746.00,1006.50
990,949.15,2202.46,227.76,1806.00,1034.00
999,950.53,2217.73,109.80,1690.00,1020.00
1008,951.90,2232.94,106.74,1650.50,999.00
1017,953.28,2248.09,127.71,1697.00,1046.50
1026,954.65,2263.17,135.55,1663.50,1018.00
1035,956.02,2278.19,128.56,1663.50,1032.00
1044,957.39,2293.14,103.18,1642.50,1045.00
1053,958.75,2308.03,61.72,1566.50,1016.50
1062,960.12,2322.85,54.06,1560.50,1024.50
1071,961.48,2337.61,0.00,1511.50,1035.00
1080,962.84,2352.31,0.00,1503.00,1035.00
1089,964.20,2366.94,0.00,1500.50,1048.00
1098,965.56,2381.51,12.11,1547.50,1049.00
1107,966.91,2396.01,105.08,1617.50,1040.00
1116,968.26,2410.45,147.04,1655.00,1041.00
1125,969.61,2424.83,133.15,1630.50,1013.00
1134,970.96,2439.14,130.55,1654.00,1033.00
1143,972.30,2453.39,146.50,1670.00,1029.50
1152,973.65,2467.58,220.60,1722.00,1033.00
1161,974.99,2481.70,156.47,1688.00,1026.00
1170,976.33,2495.76,115.22,1672.00,1035.00
1179,977.66,2509.76,11.21,1619.00,1036.00
1188,979.00,2523.70,41.79,1673.00,1052.50
1197,980.33,2537.57,146.97,1675.00,1000.00
1206,981.66,2551.38,0.00,1685.50,1065.50
1215,982.98,2565.13,101.94,1758.50,1030.00
1224,984.31,2578.82,247.92,1887.50,1027.00
1233,985.63,2592.44,589.48,2101.00,1035.00
1242,986.95,2606.01,690.39,2225.50,1079.00
1251,988.27,2619.51,284.81,2050.00,1070.50
1260,989.58,2632.95,13.69,1953.00,1053.00
1269,990.89,2646.33,2.83,2032.00,1104.50
1278,992.20,2659.65,33.37,2083.50,1070.50
1287,993.51,2672.91,509.11,2324.00,1057.00
1296,994.81,2686.10,533.08,2440.00,1054.00
1305,996.12,2699.24,1708.87,2967.00,1068.50
1314,997.41,2712.32,3039.84,3592.50,1082.50
1323,998.71,2725.33,5313.16,4445.00,1060.00
1332,1000.01,2738.29,6405.80,4811.50,1083.50
1341,1001.30,2751.18,3468.63,3853.50,1125.50
1350,1002.59,2764.02,1757.91,3192.50,1098.00
1359,1003.87,2776.79,1454.06,3039.00,1061.50
1368,1005.15,2789.51,426.76,2736.00,1069.00
1377,1006.43,2802.17,0.00,2535.50,1070.00
1386,1007.71,2814.77,0.00,2760.50,1038.00
1395,1008.99,2827.30,575.19,3493.50,1057.00
1404,1010.26,2839.78,6578.66,5543.50,1076.50
1413,1011.53,2852.21,22627.20,9967.50,1060.00
1422,1012.80,2864.57,49904.04,18015.50,1114.00
1431,1014.06,2876.87,91573.47,27179.50,1036.00
1440,1015.32,2889.12,62000.82,20843.50,1083.50
1449,1016.58,2901.31,83276.41,24950.50,1075.00
1458,1017.83,2913.44,106853.87,29641.00,1047.00
1467,1019.09,2925.51,104760.70,29621.50,1081.00
1476,1020.33,2937.53,168551.15,40383.00,1105.50
1485,1021.58,2949.49,105129.87,28091.00,1091.00
1494,1022.82,2961.39,75230.60,19998.50,1076.00
1503,1024.07,2973.23,53623.48,15080.50,1128.00
1512,1025.30,2985.02,29637.32,9944.50,1050.00
1521,1026.54,2996.75,16171.54,7141.50,1080.50
1530,1027.77,3008.43,7690.34,5468.50,1067.00
1539,1029.00,3020.05,2927.13,4521.50,1042.50
1548,1030.22,3031.61,248.18,3719.50,1054.50
1557,1031.45,3043.12,0.00,3074.00,1074.00
1566,1032.67,3054.57,0.00,2647.00,1048.50
1575,1033.88,3065.97,0.00,2293.50,996.00
1584,1035.10,3077.31,9.54,2159.00,1074.50
1593,1036.31,3088.60,0.00,1965.50,1074.00
1602,1037.52,3099.83,146.90,1875.00,1056.00
1611,1038.72,3111.00,246.66,1815.00,1084.50
1620,1039.92,3122.13,0.00,1690.00,1088.50
1629,1041.12,3133.20,0.00,1632.00,1096.50
1638,1042.32,3144.21,2.20,1549.00,1056.00
1647,1043.51,3155.17,177.91,1548.00,1067.50
1656,1044.70,3166.08,68.14,1553.50,1112.00
1665,1045.88,3176.93,0.00,1522.00,1110.00
1674,1047.07,3187.73,449.04,1486.00,1052.50
1683,1048.24,3198.48,550.44,1519.00,1095.50
1692,1049.42,3209.17,599.40,1505.00,1094.50
1701,1050.59,3219.81,925.44,1470.00,1058.00
1710,1051.76,3230.40,1244.39,1524.00,1105.00
1719,1052.93,3240.94,1203.06,1436.50,1039.00
1728,1054.10,3251.42,1330.41,1474.50,1085.50
1737,1055.26,3261.86,1767.33,1489.50,1091.00
1746,1056.41,3272.24,1406.88,1481.50,1123.50
1755,1057.57,3282.57,1621.81,1476.50,1121.50
1764,1058.72,3292.85,1421.27,1407.00,1085.50
1773,1059.87,3303.07,1733.89,1402.00,1075.00
1782,1061.01,3313.25,1548.97,1378.50,1079.50
1791,1062.15,3323.38,1352.33,1343.50,1069.50
1800,1063.29,3333.45,1284.74,1332.50,1073.00
1809,1064.42,3343.48,1785.35,1337.00,1073.00
1818,1065.55,3353.45,1438.89,1306.00,1067.50
1827,1066.68,3363.38,1343.45,1306.00,1083.50
1836,1067.81,3373.25,1226.92,1253.50,1046.50
1845,1068.93,3383.08,1539.27,1246.00,1036.00
1854,1070.05,3392.85,1686.01,1319.00,1116.00
1863,1071.16,3402.58,1321.07,1244.00,1064.00
1872,1072.27,3412.26,1054.02,1237.50,1077.00
1881,1073.38,3421.89,1129.20,1181.00,1022.00
1890,1074.49,3431.47,1235.36,1211.00,1058.00
1899,1075.59,3441.00,1212.99,1201.00,1057.00
1908,1076.69,3450.49,1382.61,1222.50,1083.50
1917,1077.78,3459.93,1055.87,1178.00,1054.00
1926,1078.87,3469.32,1059.00,1203.00,1084.50
1935,1079.96,3478.66,990.89,1164.00,1055.00
1944,1081.05,3487.95,1072.21,1197.00,1093.00
1953,1082.13,3497.20,187.68,1180.00,1097.00
1962,1083.21,3506.40,767.11,1136.50,1049.00
1971,1084.28,3515.56,759.05,1191.00,1101.50
1980,1085.36,3524.67,934.11,1150.00,1066.50
1989,1086.42,3533.73,778.82,1120.50,1043.00
1998,1087.49,3542.74,948.18,1142.50,1064.50
2007,1088.55,3551.71,1055.83,1116.50,1043.50
2016,1089.61,3560.64,333.20,1113.00,1050.50
2025,1090.67,3569.52,0.00,1113.00,1062.00
2034,1091.72,3578.35,584.36,1067.50,1008.50
2043,1092.77,3587.14,1050.63,1072.00,1006.50
2047,1093.23,3591.03,7.87,1033.50,984.00