File: enlighten/plugins/Raman/MatchingLibrary/785X/polystyrene.csv
ENLIGHTEN Version,4.1.22
Measurement ID,20250220-202154-413142-WP-01977
Serial Number,WP-01977
Model,WP-785X-F13-R-ILC
Detector,S16011-1106
Label,polystyrene
Declared Match,
Declared Score,0
Scan Averaging,6
Boxcar,0
Technique,Raman
Baseline Correction Algo,AirPLS
ROI Pixel Start,47
ROI Pixel End,2047
ROI Start Line,0
ROI Stop Line,63
CCD C4,1.38617e-12
Slit Width,25
Cropped,True
Interpolated,False
Wavenumber Correction,-0.100481
Raman Intensity Corrected,True
Deconvolved,True
Region,
High Gain Mode,False
Laser Power mW,
Electrical Dark Correction,False
Battery %,
Device ID,<DeviceID USB:0x24aa:0x1000:0:1>
FW Version,10.0.0.10
FPGA Version,035-001
BLE Version,
Prefix,enlighten
Suffix,
Preset,
Auto-Raman,True
Session Count,0
Plugin Name,
Integration Time,182
Timestamp,2025-02-20 20:21:54.4131
Note,
Temperature,0
CCD C0,793.274
CCD C1,0.153259
CCD C2,1.40788e-05
CCD C3,-1.132e-08
CCD Offset,0
CCD Gain,1.9
CCD Offset Odd,0
CCD Gain Odd,1.9
Laser Wavelength,785.032
Laser Enable,False
Laser Power %,0
Laser Temperature,0
Pixel Count,2048

Pixel,Wavelength,Wavenumber,Processed,Raw,Dark
0,793.27,132.25,NA,907.67,884.83
9,794.65,154.15,NA,916.17,887.67
18,796.04,176.01,NA,919.83,894.00
27,797.42,197.83,NA,930.83,898.00
36,798.81,219.60,NA,952.17,890.83
45,800.20,241.33,NA,4376.17,899.67
54,801.59,263.02,23.53,3386.17,912.67
63,802.98,284.66,1.04,3120.83,906.67
72,804.38,306.26,0.00,2857.17,902.50
81,805.77,327.82,61.10,2976.00,902.33
90,807.17,349.32,47.78,2951.17,899.83
99,808.57,370.78,118.40,3044.00,901.17
108,809.98,392.19,526.41,3613.17,897.83
117,811.38,413.56,672.35,3820.33,905.83
126,812.79,434.87,257.10,3206.67,897.83
135,814.19,456.14,61.94,2895.83,891.17
144,815.60,477.36,0.00,2766.83,902.17
153,817.01,498.52,0.00,2753.83,907.33
162,818.42,519.64,54.41,2827.00,902.50
171,819.84,540.70,359.84,3244.83,895.00
180,821.25,561.71,254.99,3088.33,889.67
189,822.67,582.67,132.06,2890.83,894.33
198,824.09,603.57,163.11,2942.17,895.33
207,825.50,624.43,2787.23,6686.67,904.67
216,826.92,645.22,62.58,2697.83,892.67
225,828.34,665.97,0.00,2542.17,890.17
234,829.77,686.66,0.00,2594.33,939.33
243,831.19,707.29,54.82,2729.33,901.83
252,832.61,727.87,74.56,2859.83,900.33
261,834.04,748.39,960.40,4360.50,895.50
270,835.47,768.85,1161.84,4735.50,894.83
279,836.89,789.26,2261.49,6617.17,897.00
288,838.32,809.61,1063.90,4776.67,895.50
297,839.75,829.90,217.66,3360.33,907.00
306,841.18,850.14,349.61,3602.17,901.50
315,842.61,870.31,228.28,3410.67,894.50
324,844.04,890.43,183.01,3401.33,893.17
333,845.47,910.49,381.37,3728.00,895.67
342,846.90,930.49,0.00,3125.83,897.50
351,848.33,950.43,0.09,3303.00,897.83
360,849.77,970.31,214.57,3782.17,893.17
369,851.20,990.12,2745.48,9960.83,896.33
378,852.63,1009.88,4124.12,14847.00,906.67
387,854.07,1029.58,7434.18,14515.67,896.83
396,855.50,1049.21,900.83,5258.17,893.50
405,856.94,1068.79,1024.84,5277.67,894.83
414,858.37,1088.30,781.45,4985.50,888.00
423,859.81,1107.75,370.38,4349.67,898.83
432,861.25,1127.14,0.00,3633.50,898.00
441,862.68,1146.46,727.21,5417.00,890.00
450,864.12,1165.73,1097.45,6315.83,891.33
459,865.55,1184.93,4320.32,11109.67,883.67
468,866.99,1204.06,3879.43,10601.67,895.33
477,868.43,1223.14,687.26,5807.00,890.33
486,869.86,1242.15,113.66,5023.50,890.67
495,871.30,1261.10,9.88,5013.33,890.00
504,872.73,1279.98,226.54,5424.33,894.00
513,874.17,1298.80,838.18,6439.33,894.83
522,875.60,1317.55,1549.23,7660.83,896.67
531,877.04,1336.24,1771.19,8010.67,888.33
540,878.47,1354.87,1275.20,7277.00,891.17
549,879.91,1373.43,1234.02,7185.83,894.67
558,881.34,1391.93,572.65,6238.17,883.67
567,882.78,1410.36,429.05,6018.83,883.83
576,884.21,1428.73,357.83,6043.17,898.67
585,885.64,1447.03,2166.58,8579.83,887.67
594,887.08,1465.26,232.35,5938.17,895.50
603,888.51,1483.43,65.48,5601.33,894.33
612,889.94,1501.54,28.32,5512.83,880.17
621,891.37,1519.58,27.80,5434.67,881.83
630,892.80,1537.56,50.38,5407.67,888.00
639,894.23,1555.46,55.28,5354.33,889.67
648,895.66,1573.31,548.69,6251.33,886.83
657,897.09,1591.09,1588.71,8244.33,887.00
666,898.52,1608.80,3610.50,10724.17,887.00
675,899.95,1626.44,381.94,5431.67,886.67
684,901.37,1644.02,65.18,4912.17,891.00
693,902.80,1661.54,41.58,4771.17,897.33
702,904.22,1678.99,57.76,4630.17,883.00
711,905.64,1696.37,58.37,4499.33,893.50
720,907.07,1713.68,5.62,4297.17,890.50
729,908.49,1730.93,8.61,4169.17,885.50
738,909.91,1748.12,48.31,4088.33,886.83
747,911.33,1765.23,3.89,3924.67,886.33
756,912.75,1782.29,36.24,3844.33,885.00
765,914.16,1799.27,82.36,3791.17,884.67
774,915.58,1816.19,87.73,3699.33,884.00
783,916.99,1833.04,122.18,3642.67,891.83
792,918.41,1849.83,134.47,3551.83,890.83
801,919.82,1866.55,139.84,3452.67,884.33
810,921.23,1883.20,183.88,3412.33,891.67
819,922.64,1899.79,153.78,3272.50,886.00
828,924.05,1916.31,170.11,3194.33,887.00
837,925.46,1932.77,189.86,3116.67,889.00
846,926.86,1949.16,139.77,2972.67,889.83
855,928.27,1965.48,137.87,2865.67,882.67
864,929.67,1981.74,82.35,2714.67,885.33
873,931.07,1997.93,41.22,2590.67,892.17
882,932.47,2014.06,41.95,2492.50,886.00
891,933.87,2030.12,32.03,2407.17,892.00
900,935.27,2046.11,0.00,2287.83,898.50
909,936.66,2062.04,4.31,2235.50,894.83
918,938.06,2077.91,2.54,2159.33,883.67
927,939.45,2093.70,0.00,2099.00,889.67
936,940.84,2109.44,1.68,2059.33,885.50
945,942.23,2125.10,1.18,2018.67,888.00
954,943.62,2140.70,0.00,1964.00,890.33
963,945.00,2156.24,5.94,1947.50,883.50
972,946.39,2171.71,10.46,1921.83,882.50
981,947.77,2187.12,2.71,1888.33,883.00
990,949.15,2202.46,62.01,1906.50,886.67
999,950.53,2217.73,15.07,1849.50,885.00
1008,951.90,2232.94,8.03,1814.17,880.50
1017,953.28,2248.09,13.46,1804.83,891.50
1026,954.65,2263.17,14.88,1771.50,884.50
1035,956.02,2278.19,0.17,1740.83,887.33
1044,957.39,2293.14,11.24,1733.33,887.67
1053,958.75,2308.03,53.45,1738.17,883.17
1062,960.12,2322.85,3.77,1689.50,883.67
1071,961.48,2337.61,33.09,1697.33,885.50
1080,962.84,2352.31,24.06,1676.33,887.83
1089,964.20,2366.94,19.69,1655.17,883.83
1098,965.56,2381.51,33.61,1645.00,884.50
1107,966.91,2396.01,12.28,1624.00,892.17
1116,968.26,2410.45,13.46,1604.50,889.67
1125,969.61,2424.83,15.22,1589.50,887.50
1134,970.96,2439.14,71.95,1608.67,886.67
1143,972.30,2453.39,62.98,1587.00,883.50
1152,973.65,2467.58,60.79,1568.50,884.67
1161,974.99,2481.70,87.60,1569.50,888.67
1170,976.33,2495.76,48.76,1532.67,887.50
1179,977.66,2509.76,13.66,1501.33,887.00
1188,979.00,2523.70,40.46,1499.33,887.33
1197,980.33,2537.57,34.08,1481.67,884.17
1206,981.66,2551.38,42.51,1484.17,893.67
1215,982.98,2565.13,141.27,1506.50,882.50
1224,984.31,2578.82,144.56,1498.83,882.50
1233,985.63,2592.44,134.52,1488.83,887.17
1242,986.95,2606.01,217.59,1518.00,894.17
1251,988.27,2619.51,198.41,1495.17,894.50
1260,989.58,2632.95,137.97,1448.83,893.67
1269,990.89,2646.33,144.40,1442.17,900.33
1278,992.20,2659.65,124.58,1415.50,894.00
1287,993.51,2672.91,86.77,1388.67,894.50
1296,994.81,2686.10,113.80,1379.50,892.17
1305,996.12,2699.24,50.84,1346.33,894.33
1314,997.41,2712.32,92.11,1354.50,897.67
1323,998.71,2725.33,104.54,1336.67,885.67
1332,1000.01,2738.29,80.89,1327.67,899.67
1341,1001.30,2751.18,37.02,1300.67,903.50
1350,1002.59,2764.02,0.31,1279.50,902.33
1359,1003.87,2776.79,87.78,1296.00,897.33
1368,1005.15,2789.51,8.38,1265.83,891.33
1377,1006.43,2802.17,0.00,1254.33,895.67
1386,1007.71,2814.77,0.00,1271.83,886.00
1395,1008.99,2827.30,46.11,1343.83,888.00
1404,1010.26,2839.78,1240.13,1744.67,894.83
1413,1011.53,2852.21,3344.55,2285.33,896.33
1422,1012.80,2864.57,2163.00,2020.00,902.00
1431,1014.06,2876.87,2433.79,2073.67,888.17
1440,1015.32,2889.12,4396.96,2582.50,898.17
1449,1016.58,2901.31,6625.12,3073.17,893.83
1458,1017.83,2913.44,6248.58,2947.33,891.50
1467,1019.09,2925.51,4397.27,2490.33,894.67
1476,1020.33,2937.53,2618.05,2053.50,899.50
1485,1021.58,2949.49,859.97,1663.50,898.50
1494,1022.82,2961.39,123.86,1502.17,892.00
1503,1024.07,2973.23,668.96,1586.33,904.33
1512,1025.30,2985.02,6.21,1444.17,887.33
1521,1026.54,2996.75,299.82,1523.67,894.50
1530,1027.77,3008.43,311.76,1508.00,897.00
1539,1029.00,3020.05,1280.33,1652.50,885.00
1548,1030.22,3031.61,6150.79,2392.00,892.33
1557,1031.45,3043.12,9524.51,3033.67,895.83
1566,1032.67,3054.57,19496.56,4249.17,893.50
1575,1033.88,3065.97,13574.98,3320.17,880.00
1584,1035.10,3077.31,4849.68,2028.33,898.67
1593,1036.31,3088.60,1838.29,1520.17,895.33
1602,1037.52,3099.83,554.32,1314.33,894.00
1611,1038.72,3111.00,132.96,1236.67,898.83
1620,1039.92,3122.13,0.18,1171.17,896.83
1629,1041.12,3133.20,0.00,1143.50,899.83
1638,1042.32,3144.21,19.91,1122.50,888.67
1647,1043.51,3155.17,120.57,1136.33,892.83
1656,1044.70,3166.08,489.62,1167.67,900.50
1665,1045.88,3176.93,21.90,1127.50,901.67
1674,1047.07,3187.73,185.42,1125.00,893.00
1683,1048.24,3198.48,710.78,1167.67,900.33
1692,1049.42,3209.17,806.48,1167.50,898.83
1701,1050.59,3219.81,822.99,1150.67,891.83
1710,1051.76,3230.40,1107.02,1170.17,900.00
1719,1052.93,3240.94,1295.72,1162.83,888.17
1728,1054.10,3251.42,1568.89,1180.67,897.33
1737,1055.26,3261.86,1851.09,1188.67,899.17
1746,1056.41,3272.24,1866.21,1181.33,902.50
1755,1057.57,3282.57,1973.37,1180.33,906.67
1764,1058.72,3292.85,1984.31,1161.67,898.00
1773,1059.87,3303.07,2110.01,1152.17,893.83
1782,1061.01,3313.25,1865.03,1129.17,892.50
1791,1062.15,3323.38,1851.68,1114.33,891.83
1800,1063.29,3333.45,1855.17,1105.50,891.67
1809,1064.42,3343.48,1693.75,1094.83,898.17
1818,1065.55,3353.45,1584.94,1081.17,896.50
1827,1066.68,3363.38,1710.19,1074.50,895.17
1836,1067.81,3373.25,1616.11,1056.00,888.33
1845,1068.93,3383.08,1442.35,1039.83,885.33
1854,1070.05,3392.85,1632.63,1055.17,902.17
1863,1071.16,3402.58,1180.64,1025.33,894.17
1872,1072.27,3412.26,1335.21,1023.00,892.83
1881,1073.38,3421.89,1188.04,1003.00,882.33
1890,1074.49,3431.47,1198.05,1005.00,890.33
1899,1075.59,3441.00,982.51,997.67,893.67
1908,1076.69,3450.49,864.17,997.50,901.17
1917,1077.78,3459.93,1075.60,979.50,883.67
1926,1078.87,3469.32,770.52,987.50,900.67
1935,1079.96,3478.66,716.41,970.67,891.17
1944,1081.05,3487.95,646.90,971.17,897.00
1953,1082.13,3497.20,596.23,961.83,892.17
1962,1083.21,3506.40,235.33,948.50,888.67
1971,1084.28,3515.56,218.22,957.83,903.00
1980,1085.36,3524.67,347.90,946.83,891.83
1989,1086.42,3533.73,449.69,937.00,886.00
1998,1087.49,3542.74,262.20,938.33,891.17
2007,1088.55,3551.71,410.47,933.33,887.67
2016,1089.61,3560.64,290.73,926.67,886.00
2025,1090.67,3569.52,795.04,932.33,888.00
2034,1091.72,3578.35,416.78,918.33,880.50
2043,1092.77,3587.14,1.90,912.67,884.00
2047,1093.23,3591.03,20.71,904.33,873.83