File: enlighten/plugins/Raman/MatchingLibrary/785X/sodium hydrogen citrate.csv
ENLIGHTEN Version,4.1.22
Measurement ID,20250220-204437-066725-WP-01977
Serial Number,WP-01977
Model,WP-785X-F13-R-ILC
Detector,S16011-1106
Label,sodium hydrogen citrate
Declared Match,
Declared Score,0
Scan Averaging,1
Boxcar,0
Technique,Raman
Baseline Correction Algo,AirPLS
ROI Pixel Start,47
ROI Pixel End,2047
ROI Start Line,0
ROI Stop Line,63
CCD C4,1.38617e-12
Slit Width,25
Cropped,True
Interpolated,False
Wavenumber Correction,-0.100481
Raman Intensity Corrected,True
Deconvolved,True
Region,
High Gain Mode,False
Laser Power mW,
Electrical Dark Correction,False
Battery %,
Device ID,<DeviceID USB:0x24aa:0x1000:0:1>
FW Version,10.0.0.10
FPGA Version,035-001
BLE Version,
Prefix,enlighten
Suffix,
Preset,
Auto-Raman,True
Session Count,0
Plugin Name,
Integration Time,2000
Timestamp,2025-02-20 20:44:37.0667
Note,
Temperature,0
CCD C0,793.274
CCD C1,0.153259
CCD C2,1.40788e-05
CCD C3,-1.132e-08
CCD Offset,0
CCD Gain,1.9
CCD Offset Odd,0
CCD Gain Odd,1.9
Laser Wavelength,785.032
Laser Enable,False
Laser Power %,0
Laser Temperature,0
Pixel Count,2048

Pixel,Wavelength,Wavenumber,Processed,Raw,Dark
0,793.27,132.25,NA,1385.00,1296.00
9,794.65,154.15,NA,1442.00,1353.00
18,796.04,176.01,NA,1539.00,1399.00
27,797.42,197.83,NA,1598.00,1439.00
36,798.81,219.60,NA,1588.00,1376.00
45,800.20,241.33,NA,8546.00,1406.00
54,801.59,263.02,312.98,9334.00,1518.00
63,802.98,284.66,511.38,9585.00,1478.00
72,804.38,306.26,976.40,10268.00,1465.00
81,805.77,327.82,241.73,9270.00,1429.00
90,807.17,349.32,0.00,8797.00,1429.00
99,808.57,370.78,365.94,9571.00,1440.00
108,809.98,392.19,2637.70,12780.00,1391.00
117,811.38,413.56,835.11,10511.00,1440.00
126,812.79,434.87,127.60,9488.00,1412.00
135,814.19,456.14,864.25,10376.00,1336.00
144,815.60,477.36,1308.27,11153.00,1425.00
153,817.01,498.52,1662.41,11495.00,1454.00
162,818.42,519.64,1152.94,10464.00,1475.00
171,819.84,540.70,2863.82,12894.00,1363.00
180,821.25,561.71,2632.82,12463.00,1336.00
189,822.67,582.67,932.79,9494.00,1387.00
198,824.09,603.57,0.00,7481.00,1342.00
207,825.50,624.43,229.46,7869.00,1435.00
216,826.92,645.22,2617.63,11141.00,1383.00
225,828.34,665.97,1133.90,8861.00,1306.00
234,829.77,686.66,60.63,7375.00,1609.00
243,831.19,707.29,9.10,6999.00,1456.00
252,832.61,727.87,0.00,6912.00,1452.00
261,834.04,748.39,0.00,6965.00,1391.00
270,835.47,768.85,226.94,7496.00,1344.00
279,836.89,789.26,3269.56,11973.00,1387.00
288,838.32,809.61,598.17,8541.00,1374.00
297,839.75,829.90,1923.26,11738.00,1505.00
306,841.18,850.14,4803.59,16632.00,1446.00
315,842.61,870.31,30.02,7677.00,1402.00
324,844.04,890.43,397.82,8449.00,1323.00
333,845.47,910.49,3933.02,14071.00,1368.00
342,846.90,930.49,57.62,7736.00,1408.00
351,848.33,950.43,2278.85,11436.00,1382.00
360,849.77,970.31,5612.35,15967.00,1387.00
369,851.20,990.12,5.01,7052.00,1401.00
378,852.63,1009.88,0.00,6923.00,1475.00
387,854.07,1029.58,390.21,7776.00,1383.00
396,855.50,1049.21,5988.68,15927.00,1385.00
405,856.94,1068.79,548.53,8411.00,1410.00
414,858.37,1088.30,4398.05,15730.00,1330.00
423,859.81,1107.75,3302.61,14099.00,1446.00
432,861.25,1127.14,457.73,8852.00,1439.00
441,862.68,1146.46,0.00,7684.00,1355.00
450,864.12,1165.73,0.00,7726.00,1383.00
459,865.55,1184.93,129.11,8630.00,1270.00
468,866.99,1204.06,2889.72,13152.00,1380.00
477,868.43,1223.14,0.00,9197.00,1359.00
486,869.86,1242.15,78.47,10414.00,1361.00
495,871.30,1261.10,6243.09,19738.00,1370.00
504,872.73,1279.98,592.50,12672.00,1363.00
513,874.17,1298.80,990.55,13980.00,1376.00
522,875.60,1317.55,84.30,13137.00,1395.00
531,877.04,1336.24,23.95,13579.00,1304.00
540,878.47,1354.87,421.96,14766.00,1372.00
549,879.91,1373.43,2469.89,17845.00,1374.00
558,881.34,1391.93,5295.70,22168.00,1268.00
567,882.78,1410.36,17223.46,37708.00,1317.00
576,884.21,1428.73,4133.88,20508.00,1418.00
585,885.64,1447.03,2406.62,17410.00,1319.00
594,887.08,1465.26,0.00,13564.00,1404.00
603,888.51,1483.43,114.91,13482.00,1383.00
612,889.94,1501.54,91.17,13197.00,1270.00
621,891.37,1519.58,122.65,13053.00,1243.00
630,892.80,1537.56,28.88,12791.00,1315.00
639,894.23,1555.46,24.45,12601.00,1287.00
648,895.66,1573.31,437.64,12972.00,1302.00
657,897.09,1591.09,711.82,13215.00,1290.00
666,898.52,1608.80,1199.68,13674.00,1298.00
675,899.95,1626.44,2377.71,15052.00,1302.00
684,901.37,1644.02,4797.20,18040.00,1372.00
693,902.80,1661.54,2432.45,14851.00,1433.00
702,904.22,1678.99,714.39,11967.00,1262.00
711,905.64,1696.37,184.41,11065.00,1347.00
720,907.07,1713.68,37.93,10418.00,1306.00
729,908.49,1730.93,0.00,9894.00,1319.00
738,909.91,1748.12,70.56,9592.00,1340.00
747,911.33,1765.23,0.00,9055.00,1296.00
756,912.75,1782.29,76.31,8842.00,1271.00
765,914.16,1799.27,85.10,8668.00,1325.00
774,915.58,1816.19,19.79,8279.00,1268.00
783,916.99,1833.04,165.15,8250.00,1344.00
792,918.41,1849.83,201.67,8047.00,1366.00
801,919.82,1866.55,275.53,7827.00,1313.00
810,921.23,1883.20,497.01,7869.00,1387.00
819,922.64,1899.79,380.64,7362.00,1270.00
828,924.05,1916.31,414.71,7185.00,1319.00
837,925.46,1932.77,533.29,6999.00,1296.00
846,926.86,1949.16,386.01,6674.00,1355.00
855,928.27,1965.48,366.53,6318.00,1285.00
864,929.67,1981.74,223.15,5981.00,1327.00
873,931.07,1997.93,175.56,5702.00,1347.00
882,932.47,2014.06,241.87,5458.00,1294.00
891,933.87,2030.12,46.68,5121.00,1349.00
900,935.27,2046.11,22.02,4958.00,1439.00
909,936.66,2062.04,0.00,4687.00,1418.00
918,938.06,2077.91,0.00,4402.00,1298.00
927,939.45,2093.70,104.12,4360.00,1323.00
936,940.84,2109.44,23.80,4110.00,1309.00
945,942.23,2125.10,30.00,4022.00,1359.00
954,943.62,2140.70,0.00,3838.00,1355.00
963,945.00,2156.24,28.64,3707.00,1266.00
972,946.39,2171.71,0.59,3645.00,1319.00
981,947.77,2187.12,81.51,3574.00,1256.00
990,949.15,2202.46,94.36,3576.00,1342.00
999,950.53,2217.73,119.14,3434.00,1266.00
1008,951.90,2232.94,62.24,3327.00,1256.00
1017,953.28,2248.09,49.06,3348.00,1366.00
1026,954.65,2263.17,57.21,3196.00,1283.00
1035,956.02,2278.19,78.22,3166.00,1302.00
1044,957.39,2293.14,10.33,3117.00,1338.00
1053,958.75,2308.03,70.04,3084.00,1306.00
1062,960.12,2322.85,58.50,3014.00,1275.00
1071,961.48,2337.61,55.87,3010.00,1298.00
1080,962.84,2352.31,73.93,2984.00,1306.00
1089,964.20,2366.94,37.69,2955.00,1342.00
1098,965.56,2381.51,36.82,2914.00,1332.00
1107,966.91,2396.01,168.24,2938.00,1313.00
1116,968.26,2410.45,94.71,2885.00,1328.00
1125,969.61,2424.83,8.33,2762.00,1285.00
1134,970.96,2439.14,123.93,2832.00,1313.00
1143,972.30,2453.39,266.56,2862.00,1287.00
1152,973.65,2467.58,191.79,2828.00,1321.00
1161,974.99,2481.70,363.48,2866.00,1298.00
1170,976.33,2495.76,289.10,2838.00,1347.00
1179,977.66,2509.76,265.97,2754.00,1313.00
1188,979.00,2523.70,150.65,2709.00,1368.00
1197,980.33,2537.57,158.42,2597.00,1283.00
1206,981.66,2551.38,195.98,2695.00,1404.00
1215,982.98,2565.13,35.61,2492.00,1306.00
1224,984.31,2578.82,201.44,2532.00,1309.00
1233,985.63,2592.44,98.83,2431.00,1296.00
1242,986.95,2606.01,57.22,2505.00,1433.00
1251,988.27,2619.51,82.81,2430.00,1387.00
1260,989.58,2632.95,125.21,2403.00,1389.00
1269,990.89,2646.33,35.11,2412.00,1465.00
1278,992.20,2659.65,81.76,2317.00,1376.00
1287,993.51,2672.91,170.83,2310.00,1361.00
1296,994.81,2686.10,111.12,2299.00,1391.00
1305,996.12,2699.24,123.88,2264.00,1385.00
1314,997.41,2712.32,182.95,2295.00,1414.00
1323,998.71,2725.33,60.58,2168.00,1353.00
1332,1000.01,2738.29,217.49,2257.00,1423.00
1341,1001.30,2751.18,0.00,2280.00,1558.00
1350,1002.59,2764.02,31.59,2188.00,1448.00
1359,1003.87,2776.79,109.34,2150.00,1395.00
1368,1005.15,2789.51,57.06,2143.00,1410.00
1377,1006.43,2802.17,97.79,2116.00,1368.00
1386,1007.71,2814.77,108.38,2069.00,1302.00
1395,1008.99,2827.30,0.00,2090.00,1338.00
1404,1010.26,2839.78,0.00,2204.00,1425.00
1413,1011.53,2852.21,244.90,2264.00,1355.00
1422,1012.80,2864.57,224.02,2422.00,1494.00
1431,1014.06,2876.87,323.39,2299.00,1321.00
1440,1015.32,2889.12,69.03,2390.00,1429.00
1449,1016.58,2901.31,73.18,2390.00,1383.00
1458,1017.83,2913.44,93.64,2475.00,1319.00
1467,1019.09,2925.51,2380.78,3084.00,1397.00
1476,1020.33,2937.53,13326.48,5672.00,1484.00
1485,1021.58,2949.49,33931.60,9532.00,1439.00
1494,1022.82,2961.39,10516.56,5120.00,1387.00
1503,1024.07,2973.23,4450.81,3468.00,1503.00
1512,1025.30,2985.02,17912.45,5475.00,1344.00
1521,1026.54,2996.75,13358.54,4865.00,1416.00
1530,1027.77,3008.43,3397.79,2999.00,1427.00
1539,1029.00,3020.05,241.88,2147.00,1327.00
1548,1030.22,3031.61,0.00,1987.00,1366.00
1557,1031.45,3043.12,68.58,1959.00,1399.00
1566,1032.67,3054.57,415.95,1887.00,1327.00
1575,1033.88,3065.97,144.78,1746.00,1251.00
1584,1035.10,3077.31,158.20,1913.00,1431.00
1593,1036.31,3088.60,497.67,1913.00,1421.00
1602,1037.52,3099.83,321.11,1828.00,1355.00
1611,1038.72,3111.00,197.46,1911.00,1452.00
1620,1039.92,3122.13,193.30,1917.00,1435.00
1629,1041.12,3133.20,0.00,1921.00,1456.00
1638,1042.32,3144.21,283.43,1913.00,1389.00
1647,1043.51,3155.17,4.90,1945.00,1418.00
1656,1044.70,3166.08,796.48,2118.00,1495.00
1665,1045.88,3176.93,46.53,2082.00,1480.00
1674,1047.07,3187.73,265.32,2012.00,1372.00
1683,1048.24,3198.48,1133.55,2211.00,1469.00
1692,1049.42,3209.17,921.25,2215.00,1482.00
1701,1050.59,3219.81,2016.43,2200.00,1370.00
1710,1051.76,3230.40,2978.68,2359.00,1478.00
1719,1052.93,3240.94,3841.05,2264.00,1327.00
1728,1054.10,3251.42,4350.18,2416.00,1444.00
1737,1055.26,3261.86,4420.43,2454.00,1492.00
1746,1056.41,3272.24,5538.22,2515.00,1503.00
1755,1057.57,3282.57,4628.97,2481.00,1552.00
1764,1058.72,3292.85,4115.02,2327.00,1456.00
1773,1059.87,3303.07,3079.03,2230.00,1421.00
1782,1061.01,3313.25,3463.06,2232.00,1440.00
1791,1062.15,3323.38,1433.32,2069.00,1385.00
1800,1063.29,3333.45,1177.72,2042.00,1395.00
1809,1064.42,3343.48,904.27,2073.00,1450.00
1818,1065.55,3353.45,1113.43,2002.00,1401.00
1827,1066.68,3363.38,1044.46,2016.00,1425.00
1836,1067.81,3373.25,724.45,1871.00,1328.00
1845,1068.93,3383.08,549.48,1839.00,1332.00
1854,1070.05,3392.85,1355.29,2050.00,1526.00
1863,1071.16,3402.58,2002.72,1868.00,1363.00
1872,1072.27,3412.26,1052.75,1879.00,1423.00
1881,1073.38,3421.89,1461.78,1746.00,1300.00
1890,1074.49,3431.47,1615.63,1776.00,1355.00
1899,1075.59,3441.00,1605.06,1763.00,1372.00
1908,1076.69,3450.49,2501.38,1841.00,1450.00
1917,1077.78,3459.93,821.22,1678.00,1353.00
1926,1078.87,3469.32,2290.50,1771.00,1439.00
1935,1079.96,3478.66,663.47,1659.00,1391.00
1944,1081.05,3487.95,1822.68,1746.00,1465.00
1953,1082.13,3497.20,2354.78,1702.00,1442.00
1962,1083.21,3506.40,2313.37,1604.00,1351.00
1971,1084.28,3515.56,2373.98,1744.00,1509.00
1980,1085.36,3524.67,2401.97,1611.00,1404.00
1989,1086.42,3533.73,3335.32,1554.00,1338.00
1998,1087.49,3542.74,1679.75,1575.00,1397.00
2007,1088.55,3551.71,1894.68,1501.00,1336.00
2016,1089.61,3560.64,2251.00,1499.00,1345.00
2025,1090.67,3569.52,435.87,1511.00,1385.00
2034,1091.72,3578.35,296.55,1355.00,1239.00
2043,1092.77,3587.14,0.00,1357.00,1249.00
2047,1093.23,3591.03,80.97,1319.00,1207.00