File: enlighten/plugins/Raman/MatchingLibrary/785X/tetrahydrofuran.csv
ENLIGHTEN Version,4.1.22
Measurement ID,20250220-200823-789974-WP-01977
Serial Number,WP-01977
Model,WP-785X-F13-R-ILC
Detector,S16011-1106
Label,tetrahydrofuran
Declared Match,
Declared Score,0
Scan Averaging,6
Boxcar,0
Technique,Raman
Baseline Correction Algo,AirPLS
ROI Pixel Start,47
ROI Pixel End,2047
ROI Start Line,0
ROI Stop Line,63
CCD C4,1.38617e-12
Slit Width,25
Cropped,True
Interpolated,False
Wavenumber Correction,-0.100481
Raman Intensity Corrected,True
Deconvolved,True
Region,
High Gain Mode,False
Laser Power mW,
Electrical Dark Correction,False
Battery %,
Device ID,<DeviceID USB:0x24aa:0x1000:0:1>
FW Version,10.0.0.10
FPGA Version,035-001
BLE Version,
Prefix,enlighten
Suffix,
Preset,
Auto-Raman,True
Session Count,0
Plugin Name,
Integration Time,168
Timestamp,2025-02-20 20:08:23.79
Note,
Temperature,0
CCD C0,793.274
CCD C1,0.153259
CCD C2,1.40788e-05
CCD C3,-1.132e-08
CCD Offset,0
CCD Gain,1.9
CCD Offset Odd,0
CCD Gain Odd,1.9
Laser Wavelength,785.032
Laser Enable,False
Laser Power %,0
Laser Temperature,0
Pixel Count,2048

Pixel,Wavelength,Wavenumber,Processed,Raw,Dark
0,793.27,132.25,NA,888.33,879.17
9,794.65,154.15,NA,890.83,881.17
18,796.04,176.01,NA,899.17,891.17
27,797.42,197.83,NA,903.00,898.00
36,798.81,219.60,NA,902.33,885.17
45,800.20,241.33,NA,1486.00,888.33
54,801.59,263.02,210.87,1714.50,893.17
63,802.98,284.66,428.52,1958.67,894.67
72,804.38,306.26,242.72,1694.67,891.67
81,805.77,327.82,95.41,1449.17,884.50
90,807.17,349.32,38.45,1334.33,888.33
99,808.57,370.78,0.00,1238.00,893.67
108,809.98,392.19,0.00,1211.33,884.33
117,811.38,413.56,108.40,1353.33,894.33
126,812.79,434.87,20.73,1229.83,887.67
135,814.19,456.14,21.88,1220.17,883.33
144,815.60,477.36,20.71,1214.17,889.33
153,817.01,498.52,19.48,1200.50,889.33
162,818.42,519.64,0.00,1159.67,890.33
171,819.84,540.70,0.00,1151.50,881.67
180,821.25,561.71,61.40,1264.83,880.50
189,822.67,582.67,276.31,1608.50,883.83
198,824.09,603.57,279.40,1636.17,882.83
207,825.50,624.43,234.42,1587.83,892.67
216,826.92,645.22,287.53,1675.67,884.17
225,828.34,665.97,290.02,1685.33,884.33
234,829.77,686.66,89.85,1400.00,905.00
243,831.19,707.29,9.02,1264.17,895.67
252,832.61,727.87,0.00,1243.17,893.67
261,834.04,748.39,22.62,1361.33,889.33
270,835.47,768.85,29.45,1443.67,880.50
279,836.89,789.26,0.00,1469.50,885.67
288,838.32,809.61,0.00,1670.17,885.67
297,839.75,829.90,155.18,2116.33,897.50
306,841.18,850.14,574.73,2899.50,889.83
315,842.61,870.31,980.35,3738.67,894.00
324,844.04,890.43,3743.62,8799.83,885.33
333,845.47,910.49,23900.96,40465.83,890.00
342,846.90,930.49,3773.89,9557.33,890.17
351,848.33,950.43,798.78,3722.17,888.83
360,849.77,970.31,128.01,2632.33,887.83
369,851.20,990.12,56.71,2504.50,888.67
378,852.63,1009.88,687.82,3586.83,899.00
387,854.07,1029.58,3635.10,7981.00,889.83
396,855.50,1049.21,734.43,3536.83,891.17
405,856.94,1068.79,755.81,3314.00,889.33
414,858.37,1088.30,93.35,2199.17,882.17
423,859.81,1107.75,0.00,1923.00,891.00
432,861.25,1127.14,92.61,2176.67,891.67
441,862.68,1146.46,255.46,2488.33,881.00
450,864.12,1165.73,564.15,3063.00,891.50
459,865.55,1184.93,887.93,3616.50,880.00
468,866.99,1204.06,1026.60,3964.00,884.67
477,868.43,1223.14,2662.58,6564.67,883.17
486,869.86,1242.15,2720.90,6748.00,888.67
495,871.30,1261.10,1627.72,5027.50,887.67
504,872.73,1279.98,955.41,3956.83,889.17
513,874.17,1298.80,622.70,3445.17,887.67
522,875.60,1317.55,345.09,3039.00,886.00
531,877.04,1336.24,500.59,3255.50,879.83
540,878.47,1354.87,192.94,2903.50,884.67
549,879.91,1373.43,198.21,2947.00,884.00
558,881.34,1391.93,26.83,2663.67,875.33
567,882.78,1410.36,222.97,2920.33,883.67
576,884.21,1428.73,838.10,3873.33,888.00
585,885.64,1447.03,3633.90,7767.33,883.00
594,887.08,1465.26,3053.06,7113.00,892.33
603,888.51,1483.43,3174.24,7167.17,889.00
612,889.94,1501.54,1769.67,5015.50,878.00
621,891.37,1519.58,578.04,3086.33,872.67
630,892.80,1537.56,239.11,2518.67,882.17
639,894.23,1555.46,77.70,2218.50,881.33
648,895.66,1573.31,4.49,2048.33,881.50
657,897.09,1591.09,0.00,1925.33,879.17
666,898.52,1608.80,0.00,1869.00,881.67
675,899.95,1626.44,9.10,1838.67,880.33
684,901.37,1644.02,2.92,1797.83,882.33
693,902.80,1661.54,22.64,1790.50,889.17
702,904.22,1678.99,19.32,1735.83,875.17
711,905.64,1696.37,16.77,1704.50,883.50
720,907.07,1713.68,55.64,1738.17,885.50
729,908.49,1730.93,226.17,1901.00,881.50
738,909.91,1748.12,35.18,1624.67,883.00
747,911.33,1765.23,1.22,1545.17,878.33
756,912.75,1782.29,3.10,1512.67,876.83
765,914.16,1799.27,4.62,1489.17,882.50
774,915.58,1816.19,19.54,1469.33,874.67
783,916.99,1833.04,20.37,1452.00,882.33
792,918.41,1849.83,14.56,1422.50,884.67
801,919.82,1866.55,20.79,1399.33,879.17
810,921.23,1883.20,27.78,1387.00,885.67
819,922.64,1899.79,21.22,1343.83,874.33
828,924.05,1916.31,29.65,1335.83,882.50
837,925.46,1932.77,40.19,1318.33,880.17
846,926.86,1949.16,26.26,1278.83,881.00
855,928.27,1965.48,17.52,1241.00,874.17
864,929.67,1981.74,20.64,1230.33,884.67
873,931.07,1997.93,16.52,1202.00,882.83
882,932.47,2014.06,0.77,1158.67,877.50
891,933.87,2030.12,4.46,1146.00,882.17
900,935.27,2046.11,0.87,1131.17,890.67
909,936.66,2062.04,5.01,1113.17,888.00
918,938.06,2077.91,0.00,1078.67,880.33
927,939.45,2093.70,1.34,1071.00,878.83
936,940.84,2109.44,13.60,1073.17,880.83
945,942.23,2125.10,62.13,1112.67,884.00
954,943.62,2140.70,35.79,1082.67,887.67
963,945.00,2156.24,16.94,1041.83,876.67
972,946.39,2171.71,1.07,1023.33,879.50
981,947.77,2187.12,4.10,1017.33,875.67
990,949.15,2202.46,2.97,1023.00,884.33
999,950.53,2217.73,0.81,1016.17,880.67
1008,951.90,2232.94,7.10,1020.50,877.83
1017,953.28,2248.09,4.13,1030.17,888.00
1026,954.65,2263.17,8.11,1027.83,880.33
1035,956.02,2278.19,14.71,1037.17,880.83
1044,957.39,2293.14,20.07,1045.83,884.00
1053,958.75,2308.03,18.09,1042.33,879.83
1062,960.12,2322.85,24.80,1044.83,876.00
1071,961.48,2337.61,26.83,1046.67,877.17
1080,962.84,2352.31,22.07,1044.17,878.17
1089,964.20,2366.94,12.92,1046.83,885.33
1098,965.56,2381.51,6.02,1044.33,884.67
1107,966.91,2396.01,36.15,1064.83,885.33
1116,968.26,2410.45,33.69,1063.00,882.67
1125,969.61,2424.83,30.53,1059.67,882.67
1134,970.96,2439.14,39.43,1063.17,880.17
1143,972.30,2453.39,18.67,1050.67,881.33
1152,973.65,2467.58,12.57,1044.00,880.00
1161,974.99,2481.70,7.49,1038.17,878.00
1170,976.33,2495.76,7.74,1044.17,882.00
1179,977.66,2509.76,0.00,1046.33,885.67
1188,979.00,2523.70,12.26,1063.67,882.83
1197,980.33,2537.57,5.37,1068.67,880.50
1206,981.66,2551.38,53.18,1113.00,887.00
1215,982.98,2565.13,173.57,1183.83,880.17
1224,984.31,2578.82,483.97,1323.83,879.50
1233,985.63,2592.44,217.21,1213.00,879.50
1242,986.95,2606.01,171.97,1200.00,889.33
1251,988.27,2619.51,144.67,1191.83,890.67
1260,989.58,2632.95,115.67,1187.17,891.33
1269,990.89,2646.33,314.22,1294.67,893.33
1278,992.20,2659.65,970.00,1540.17,887.67
1287,993.51,2672.91,465.66,1352.50,888.33
1296,994.81,2686.10,211.96,1230.17,884.67
1305,996.12,2699.24,168.47,1225.33,892.33
1314,997.41,2712.32,937.15,1560.50,892.00
1323,998.71,2725.33,1084.95,1591.67,885.33
1332,1000.01,2738.29,174.77,1230.50,896.00
1341,1001.30,2751.18,0.00,1160.50,901.67
1350,1002.59,2764.02,0.00,1163.00,894.17
1359,1003.87,2776.79,0.00,1195.00,886.33
1368,1005.15,2789.51,0.00,1295.17,892.50
1377,1006.43,2802.17,134.70,1481.50,889.33
1386,1007.71,2814.77,1229.79,1819.00,880.00
1395,1008.99,2827.30,3170.86,2433.17,890.67
1404,1010.26,2839.78,7348.81,3683.50,893.83
1413,1011.53,2852.21,14782.72,5699.17,889.67
1422,1012.80,2864.57,20443.19,7218.00,900.50
1431,1014.06,2876.87,25321.35,8019.50,886.00
1440,1015.32,2889.12,15204.70,5543.17,895.67
1449,1016.58,2901.31,12162.67,4581.50,889.17
1458,1017.83,2913.44,15036.40,5064.17,887.67
1467,1019.09,2925.51,16774.35,5463.83,892.67
1476,1020.33,2937.53,24068.74,6808.67,899.00
1485,1021.58,2949.49,24328.15,6844.50,893.00
1494,1022.82,2961.39,27564.98,7168.33,890.00
1503,1024.07,2973.23,24242.44,6405.50,903.67
1512,1025.30,2985.02,21227.55,5517.17,881.67
1521,1026.54,2996.75,14168.59,4080.67,891.00
1530,1027.77,3008.43,7194.13,2713.67,892.50
1539,1029.00,3020.05,3593.16,1994.00,885.00
1548,1030.22,3031.61,1478.22,1593.83,886.33
1557,1031.45,3043.12,175.73,1372.17,891.50
1566,1032.67,3054.57,0.33,1244.67,888.50
1575,1033.88,3065.97,0.00,1139.00,876.33
1584,1035.10,3077.31,0.00,1093.50,889.00
1593,1036.31,3088.60,28.12,1051.83,885.67
1602,1037.52,3099.83,0.00,1015.67,891.17
1611,1038.72,3111.00,47.25,1008.83,892.67
1620,1039.92,3122.13,14.86,986.83,890.50
1629,1041.12,3133.20,19.37,982.33,895.83
1638,1042.32,3144.21,12.36,966.83,888.33
1647,1043.51,3155.17,89.04,969.17,888.67
1656,1044.70,3166.08,28.93,974.00,900.50
1665,1045.88,3176.93,89.37,971.83,896.00
1674,1047.07,3187.73,114.62,963.33,887.67
1683,1048.24,3198.48,191.66,974.50,897.33
1692,1049.42,3209.17,269.87,976.17,894.00
1701,1050.59,3219.81,313.10,967.50,887.17
1710,1051.76,3230.40,309.03,974.00,897.67
1719,1052.93,3240.94,413.00,967.83,884.33
1728,1054.10,3251.42,519.32,979.17,893.83
1737,1055.26,3261.86,417.11,974.67,898.33
1746,1056.41,3272.24,421.10,975.00,901.83
1755,1057.57,3282.57,658.13,983.33,899.17
1764,1058.72,3292.85,638.04,971.17,892.83
1773,1059.87,3303.07,528.04,959.67,889.67
1782,1061.01,3313.25,596.60,962.33,892.33
1791,1062.15,3323.38,446.72,948.33,889.33
1800,1063.29,3333.45,596.88,952.00,889.17
1809,1064.42,3343.48,481.43,947.17,891.33
1818,1065.55,3353.45,556.56,944.17,888.17
1827,1066.68,3363.38,546.46,945.67,893.00
1836,1067.81,3373.25,521.77,934.50,883.67
1845,1068.93,3383.08,359.00,925.83,884.83
1854,1070.05,3392.85,489.40,945.17,901.50
1863,1071.16,3402.58,684.66,935.33,887.00
1872,1072.27,3412.26,624.90,932.67,888.33
1881,1073.38,3421.89,670.09,921.50,878.50
1890,1074.49,3431.47,443.30,923.00,888.17
1899,1075.59,3441.00,491.23,921.67,886.83
1908,1076.69,3450.49,517.82,927.50,892.67
1917,1077.78,3459.93,728.67,920.50,884.33
1926,1078.87,3469.32,524.57,924.33,893.50
1935,1079.96,3478.66,575.12,919.17,888.67
1944,1081.05,3487.95,122.77,915.00,896.50
1953,1082.13,3497.20,467.30,918.67,893.33
1962,1083.21,3506.40,471.25,909.50,883.00
1971,1084.28,3515.56,503.16,922.00,897.00
1980,1085.36,3524.67,479.45,910.50,888.83
1989,1086.42,3533.73,585.86,904.33,881.17
1998,1087.49,3542.74,297.94,907.83,889.50
2007,1088.55,3551.71,131.88,900.83,887.67
2016,1089.61,3560.64,284.11,901.33,886.33
2025,1090.67,3569.52,254.04,903.67,888.67
2034,1091.72,3578.35,374.79,891.83,877.67
2043,1092.77,3587.14,394.51,890.67,877.17
2047,1093.23,3591.03,0.00,883.33,875.33