File: src/enlighten/plugins/Raman/MatchingLibrary/785X/2-amino butane.csv
ENLIGHTEN Version,4.1.22
Measurement ID,20250220-200447-071895-WP-01977
Serial Number,WP-01977
Model,WP-785X-F13-R-ILC
Detector,S16011-1106
Label,2-amino butane
Declared Match,
Declared Score,0
Scan Averaging,3
Boxcar,0
Technique,Raman
Baseline Correction Algo,AirPLS
ROI Pixel Start,47
ROI Pixel End,2047
ROI Start Line,0
ROI Stop Line,63
CCD C4,1.38617e-12
Slit Width,25
Cropped,True
Interpolated,False
Wavenumber Correction,-0.100481
Raman Intensity Corrected,True
Deconvolved,True
Region,
High Gain Mode,False
Laser Power mW,
Electrical Dark Correction,False
Battery %,
Device ID,<DeviceID USB:0x24aa:0x1000:0:1>
FW Version,10.0.0.10
FPGA Version,035-001
BLE Version,
Prefix,enlighten
Suffix,
Preset,
Auto-Raman,True
Session Count,0
Plugin Name,
Integration Time,423
Timestamp,2025-02-20 20:04:47.0719
Note,
Temperature,0
CCD C0,793.274
CCD C1,0.153259
CCD C2,1.40788e-05
CCD C3,-1.132e-08
CCD Offset,0
CCD Gain,1.9
CCD Offset Odd,0
CCD Gain Odd,1.9
Laser Wavelength,785.032
Laser Enable,False
Laser Power %,0
Laser Temperature,0
Pixel Count,2048

Pixel,Wavelength,Wavenumber,Processed,Raw,Dark
0,793.27,132.25,NA,1096.33,939.33
9,794.65,154.15,NA,1117.00,946.33
18,796.04,176.01,NA,1167.00,962.00
27,797.42,197.83,NA,1225.33,964.33
36,798.81,219.60,NA,1315.00,957.33
45,800.20,241.33,NA,15280.67,973.33
54,801.59,263.02,904.96,18065.00,992.33
63,802.98,284.66,704.47,18103.67,982.00
72,804.38,306.26,9.41,17495.33,980.33
81,805.77,327.82,55.93,17755.00,968.67
90,807.17,349.32,175.93,18178.33,969.67
99,808.57,370.78,925.17,19529.00,974.67
108,809.98,392.19,2075.25,21318.33,966.33
117,811.38,413.56,1303.36,20441.33,975.33
126,812.79,434.87,1473.56,20805.67,969.33
135,814.19,456.14,1403.20,20783.33,945.67
144,815.60,477.36,2787.41,23608.67,974.67
153,817.01,498.52,4775.79,26559.67,976.67
162,818.42,519.64,344.69,19692.67,977.33
171,819.84,540.70,28.72,19227.00,957.00
180,821.25,561.71,52.53,19220.67,953.67
189,822.67,582.67,0.55,19066.00,960.00
198,824.09,603.57,0.00,18963.67,954.33
207,825.50,624.43,61.27,19032.00,974.00
216,826.92,645.22,17.82,18969.67,962.67
225,828.34,665.97,111.21,19080.00,949.67
234,829.77,686.66,0.00,18976.00,1012.67
243,831.19,707.29,0.00,18939.00,979.00
252,832.61,727.87,0.00,19139.00,981.00
261,834.04,748.39,516.29,20328.00,958.00
270,835.47,768.85,14487.49,40954.00,953.67
279,836.89,789.26,2799.03,24762.67,959.67
288,838.32,809.61,12910.88,39749.00,957.00
297,839.75,829.90,2268.45,24181.33,986.00
306,841.18,850.14,786.59,21509.00,971.33
315,842.61,870.31,229.33,20643.33,965.33
324,844.04,890.43,0.20,20259.67,957.67
333,845.47,910.49,1441.06,22703.67,962.67
342,846.90,930.49,1834.67,23172.00,966.00
351,848.33,950.43,52.93,20131.00,963.33
360,849.77,970.31,1198.24,21884.67,961.00
369,851.20,990.12,3505.06,25474.00,964.00
378,852.63,1009.88,3460.85,25317.00,985.33
387,854.07,1029.58,2680.52,24066.00,956.33
396,855.50,1049.21,4676.58,26842.33,964.67
405,856.94,1068.79,957.75,20669.00,958.67
414,858.37,1088.30,0.00,18660.67,943.00
423,859.81,1107.75,1188.07,20552.00,971.00
432,861.25,1127.14,1696.28,21420.00,971.33
441,862.68,1146.46,1782.42,21281.67,952.33
450,864.12,1165.73,2939.73,22620.00,968.00
459,865.55,1184.93,170.32,18261.33,929.00
468,866.99,1204.06,0.00,17750.67,958.33
477,868.43,1223.14,587.11,18635.00,956.67
486,869.86,1242.15,592.78,18633.33,955.00
495,871.30,1261.10,1289.94,19704.00,958.33
504,872.73,1279.98,1726.95,20306.33,957.67
513,874.17,1298.80,2152.47,20808.33,955.00
522,875.60,1317.55,1427.92,19707.33,956.33
531,877.04,1336.24,1964.51,20518.33,940.33
540,878.47,1354.87,3390.30,22601.00,940.67
549,879.91,1373.43,3246.69,22181.67,958.33
558,881.34,1391.93,2250.85,20476.67,934.33
567,882.78,1410.36,1429.83,19127.67,943.00
576,884.21,1428.73,3166.99,22093.67,965.00
585,885.64,1447.03,12578.97,35725.00,939.00
594,887.08,1465.26,10204.50,32011.00,962.00
603,888.51,1483.43,2333.87,20100.00,956.00
612,889.94,1501.54,625.10,17242.33,929.67
621,891.37,1519.58,17.56,16142.33,925.33
630,892.80,1537.56,74.98,15826.00,945.67
639,894.23,1555.46,2.84,15346.00,945.00
648,895.66,1573.31,265.65,15358.67,946.33
657,897.09,1591.09,462.25,15242.67,937.33
666,898.52,1608.80,504.09,14939.67,939.67
675,899.95,1626.44,512.84,14583.33,946.33
684,901.37,1644.02,281.93,13929.33,949.67
693,902.80,1661.54,484.81,13796.00,968.00
702,904.22,1678.99,295.26,13189.67,941.00
711,905.64,1696.37,298.97,12865.33,965.00
720,907.07,1713.68,254.52,12404.67,937.67
729,908.49,1730.93,57.38,11828.67,944.33
738,909.91,1748.12,101.61,11512.33,947.67
747,911.33,1765.23,0.00,11037.00,941.67
756,912.75,1782.29,13.29,10806.33,939.33
765,914.16,1799.27,56.37,10627.67,943.00
774,915.58,1816.19,4.73,10308.33,929.33
783,916.99,1833.04,187.60,10302.67,948.67
792,918.41,1849.83,123.18,10003.67,952.00
801,919.82,1866.55,126.46,9780.00,950.67
810,921.23,1883.20,213.59,9651.67,958.33
819,922.64,1899.79,185.91,9357.33,931.00
828,924.05,1916.31,132.19,9088.67,945.67
837,925.46,1932.77,248.28,8982.33,941.67
846,926.86,1949.16,69.42,8568.67,945.00
855,928.27,1965.48,187.30,8453.67,931.00
864,929.67,1981.74,169.55,8231.00,947.67
873,931.07,1997.93,27.25,7881.33,957.00
882,932.47,2014.06,94.77,7716.00,937.33
891,933.87,2030.12,105.91,7532.33,943.67
900,935.27,2046.11,22.89,7267.33,969.00
909,936.66,2062.04,113.15,7142.67,966.67
918,938.06,2077.91,32.32,6846.67,934.33
927,939.45,2093.70,19.68,6640.33,940.67
936,940.84,2109.44,0.36,6443.00,938.67
945,942.23,2125.10,23.12,6329.33,960.00
954,943.62,2140.70,11.92,6142.00,943.33
963,945.00,2156.24,54.58,6010.67,933.00
972,946.39,2171.71,56.90,5875.33,941.00
981,947.77,2187.12,2.65,5680.00,934.33
990,949.15,2202.46,105.25,5647.33,943.67
999,950.53,2217.73,189.07,5584.00,938.00
1008,951.90,2232.94,249.39,5495.00,937.67
1017,953.28,2248.09,138.52,5302.67,955.67
1026,954.65,2263.17,142.36,5153.00,937.67
1035,956.02,2278.19,87.04,4996.00,951.67
1044,957.39,2293.14,47.85,4855.00,950.67
1053,958.75,2308.03,65.43,4729.00,940.67
1062,960.12,2322.85,31.84,4589.33,940.00
1071,961.48,2337.61,49.85,4498.67,936.33
1080,962.84,2352.31,106.49,4433.67,947.67
1089,964.20,2366.94,55.56,4305.00,949.00
1098,965.56,2381.51,103.02,4242.67,946.33
1107,966.91,2396.01,137.86,4167.67,949.67
1116,968.26,2410.45,40.27,4002.67,942.00
1125,969.61,2424.83,81.75,3926.33,937.00
1134,970.96,2439.14,63.41,3829.33,945.00
1143,972.30,2453.39,65.24,3724.67,933.67
1152,973.65,2467.58,21.68,3632.33,940.33
1161,974.99,2481.70,10.58,3552.00,939.67
1170,976.33,2495.76,59.01,3510.67,947.00
1179,977.66,2509.76,0.00,3414.00,946.33
1188,979.00,2523.70,8.23,3394.33,962.67
1197,980.33,2537.57,57.55,3353.33,938.00
1206,981.66,2551.38,0.00,3315.00,967.00
1215,982.98,2565.13,0.53,3282.33,941.00
1224,984.31,2578.82,215.76,3422.33,942.33
1233,985.63,2592.44,737.64,3676.67,941.67
1242,986.95,2606.01,604.44,3626.33,968.33
1251,988.27,2619.51,107.55,3375.33,956.00
1260,989.58,2632.95,33.10,3333.00,960.67
1269,990.89,2646.33,0.00,3344.00,979.67
1278,992.20,2659.65,260.92,3456.67,959.67
1287,993.51,2672.91,631.19,3630.33,955.67
1296,994.81,2686.10,1302.45,3874.33,960.33
1305,996.12,2699.24,376.32,3556.33,960.00
1314,997.41,2712.32,1797.53,4113.33,965.33
1323,998.71,2725.33,4459.67,5029.00,947.67
1332,1000.01,2738.29,3571.68,4737.67,975.33
1341,1001.30,2751.18,2031.72,4120.67,993.67
1350,1002.59,2764.02,846.33,3632.33,969.67
1359,1003.87,2776.79,30.42,3349.00,962.67
1368,1005.15,2789.51,0.00,3267.00,968.33
1377,1006.43,2802.17,0.00,3681.67,959.00
1386,1007.71,2814.77,916.27,4561.67,949.00
1395,1008.99,2827.30,5284.22,5777.67,955.00
1404,1010.26,2839.78,12242.29,7871.00,968.67
1413,1011.53,2852.21,30499.11,12546.33,961.33
1422,1012.80,2864.57,40982.90,15680.67,983.33
1431,1014.06,2876.87,65284.95,20555.33,955.33
1440,1015.32,2889.12,46192.86,15979.33,973.00
1449,1016.58,2901.31,42623.74,14461.00,964.67
1458,1017.83,2913.44,50822.72,15776.00,954.33
1467,1019.09,2925.51,57088.34,16762.67,969.00
1476,1020.33,2937.53,59676.05,16262.67,979.33
1485,1021.58,2949.49,34073.46,11069.33,978.33
1494,1022.82,2961.39,41666.77,11501.00,960.00
1503,1024.07,2973.23,27483.01,8573.33,987.67
1512,1025.30,2985.02,12095.09,5272.00,956.67
1521,1026.54,2996.75,3677.70,3465.33,966.00
1530,1027.77,3008.43,298.54,2701.67,963.33
1539,1029.00,3020.05,0.00,2243.67,944.33
1548,1030.22,3031.61,0.00,2003.67,959.33
1557,1031.45,3043.12,0.00,1841.00,965.67
1566,1032.67,3054.57,0.00,1722.67,952.00
1575,1033.88,3065.97,0.00,1611.67,933.67
1584,1035.10,3077.31,138.45,1594.67,957.67
1593,1036.31,3088.60,25.16,1537.67,967.00
1602,1037.52,3099.83,0.00,1473.33,955.00
1611,1038.72,3111.00,85.95,1472.00,970.00
1620,1039.92,3122.13,76.90,1433.67,963.67
1629,1041.12,3133.20,0.00,1419.00,980.33
1638,1042.32,3144.21,0.00,1391.33,955.33
1647,1043.51,3155.17,0.00,1398.00,962.67
1656,1044.70,3166.08,163.14,1447.67,980.00
1665,1045.88,3176.93,123.45,1453.67,981.67
1674,1047.07,3187.73,267.32,1439.00,948.33
1683,1048.24,3198.48,95.57,1449.00,971.00
1692,1049.42,3209.17,194.57,1458.00,969.33
1701,1050.59,3219.81,48.45,1443.33,961.67
1710,1051.76,3230.40,95.22,1466.00,971.67
1719,1052.93,3240.94,260.90,1457.67,949.33
1728,1054.10,3251.42,1305.12,1524.00,965.00
1737,1055.26,3261.86,2467.85,1598.00,980.33
1746,1056.41,3272.24,4065.92,1679.00,985.00
1755,1057.57,3282.57,5939.64,1777.67,994.67
1764,1058.72,3292.85,8498.21,1878.00,973.67
1773,1059.87,3303.07,10904.98,1971.33,971.00
1782,1061.01,3313.25,12694.61,2009.33,964.67
1791,1062.15,3323.38,11119.74,1870.00,953.00
1800,1063.29,3333.45,7627.70,1657.00,956.33
1809,1064.42,3343.48,5071.60,1519.33,971.00
1818,1065.55,3353.45,4777.06,1465.33,961.33
1827,1066.68,3363.38,5392.08,1475.33,972.00
1836,1067.81,3373.25,5486.38,1431.33,948.33
1845,1068.93,3383.08,5062.08,1382.00,944.33
1854,1070.05,3392.85,2973.56,1327.00,985.33
1863,1071.16,3402.58,1769.55,1246.00,968.67
1872,1072.27,3412.26,886.30,1197.67,966.67
1881,1073.38,3421.89,262.63,1135.33,935.33
1890,1074.49,3431.47,304.03,1134.33,953.00
1899,1075.59,3441.00,92.76,1114.00,952.33
1908,1076.69,3450.49,783.71,1126.00,964.00
1917,1077.78,3459.93,448.18,1093.00,950.67
1926,1078.87,3469.32,131.71,1095.33,972.67
1935,1079.96,3478.66,469.38,1079.67,957.33
1944,1081.05,3487.95,57.78,1075.33,974.00
1953,1082.13,3497.20,351.47,1067.00,964.67
1962,1083.21,3506.40,716.03,1047.33,950.33
1971,1084.28,3515.56,622.72,1071.33,982.00
1980,1085.36,3524.67,960.73,1052.00,962.00
1989,1086.42,3533.73,0.00,1020.33,956.33
1998,1087.49,3542.74,465.90,1030.33,960.67
2007,1088.55,3551.71,967.16,1016.00,941.67
2016,1089.61,3560.64,1108.08,1013.67,943.00
2025,1090.67,3569.52,385.45,1016.00,958.33
2034,1091.72,3578.35,1082.09,988.00,926.67
2043,1092.77,3587.14,383.33,981.33,932.00
2047,1093.23,3591.03,0.00,960.67,920.67