File: src/enlighten/plugins/Raman/MatchingLibrary/785X/2-methyl propanol.csv
ENLIGHTEN Version,4.1.22
Measurement ID,20250220-200056-941028-WP-01977
Serial Number,WP-01977
Model,WP-785X-F13-R-ILC
Detector,S16011-1106
Label,2-methyl propanol
Declared Match,
Declared Score,0
Scan Averaging,4
Boxcar,0
Technique,Raman
Baseline Correction Algo,AirPLS
ROI Pixel Start,47
ROI Pixel End,2047
ROI Start Line,0
ROI Stop Line,63
CCD C4,1.38617e-12
Slit Width,25
Cropped,True
Interpolated,False
Wavenumber Correction,-0.100481
Raman Intensity Corrected,True
Deconvolved,True
Region,
High Gain Mode,False
Laser Power mW,
Electrical Dark Correction,False
Battery %,
Device ID,<DeviceID USB:0x24aa:0x1000:0:1>
FW Version,10.0.0.10
FPGA Version,035-001
BLE Version,
Prefix,enlighten
Suffix,
Preset,
Auto-Raman,True
Session Count,0
Plugin Name,
Integration Time,323
Timestamp,2025-02-20 20:00:56.941
Note,
Temperature,0
CCD C0,793.274
CCD C1,0.153259
CCD C2,1.40788e-05
CCD C3,-1.132e-08
CCD Offset,0
CCD Gain,1.9
CCD Offset Odd,0
CCD Gain Odd,1.9
Laser Wavelength,785.032
Laser Enable,False
Laser Power %,0
Laser Temperature,0
Pixel Count,2048

Pixel,Wavelength,Wavenumber,Processed,Raw,Dark
0,793.27,132.25,NA,936.75,916.75
9,794.65,154.15,NA,938.00,923.50
18,796.04,176.01,NA,955.25,937.25
27,797.42,197.83,NA,969.25,938.25
36,798.81,219.60,NA,963.25,929.00
45,800.20,241.33,NA,2250.75,929.75
54,801.59,263.02,339.59,2682.50,949.75
63,802.98,284.66,265.20,2561.50,943.00
72,804.38,306.26,52.78,2222.50,937.50
81,805.77,327.82,0.03,2120.50,931.75
90,807.17,349.32,844.22,3421.50,936.25
99,808.57,370.78,962.08,3557.50,943.00
108,809.98,392.19,162.10,2282.00,928.25
117,811.38,413.56,440.18,2727.25,936.25
126,812.79,434.87,522.77,2799.75,932.50
135,814.19,456.14,228.54,2242.50,920.25
144,815.60,477.36,1177.64,3891.75,939.50
153,817.01,498.52,7353.64,12337.50,946.50
162,818.42,519.64,527.57,2656.50,940.75
171,819.84,540.70,77.09,1815.00,915.00
180,821.25,561.71,0.00,1640.25,920.75
189,822.67,582.67,0.00,1603.50,929.25
198,824.09,603.57,97.21,1721.25,920.25
207,825.50,624.43,0.88,1562.00,939.00
216,826.92,645.22,6.10,1534.75,925.50
225,828.34,665.97,0.00,1495.25,923.00
234,829.77,686.66,0.00,1530.50,968.25
243,831.19,707.29,16.27,1557.50,941.25
252,832.61,727.87,0.00,1557.50,938.25
261,834.04,748.39,50.53,1709.50,924.00
270,835.47,768.85,357.90,2438.75,921.00
279,836.89,789.26,4410.74,9082.75,932.00
288,838.32,809.61,4853.02,12963.25,931.50
297,839.75,829.90,3980.36,11656.25,950.75
306,841.18,850.14,561.97,2938.00,933.75
315,842.61,870.31,11.54,2053.25,925.00
324,844.04,890.43,197.43,2520.50,921.25
333,845.47,910.49,950.77,3891.25,922.50
342,846.90,930.49,1215.05,4623.25,932.25
351,848.33,950.43,2013.75,6506.25,933.50
360,849.77,970.31,1685.39,5857.25,929.50
369,851.20,990.12,182.99,2744.25,934.75
378,852.63,1009.88,454.25,3241.25,946.00
387,854.07,1029.58,812.87,3955.50,930.25
396,855.50,1049.21,3032.29,7516.25,935.75
405,856.94,1068.79,331.95,3270.25,925.50
414,858.37,1088.30,8.16,2660.25,924.00
423,859.81,1107.75,895.20,4326.75,938.75
432,861.25,1127.14,5798.96,11550.25,936.25
441,862.68,1146.46,1373.83,5111.00,922.25
450,864.12,1165.73,1345.54,5234.75,929.25
459,865.55,1184.93,1245.90,4982.25,910.50
468,866.99,1204.06,0.00,2830.00,922.00
477,868.43,1223.14,195.88,3238.75,921.00
486,869.86,1242.15,1948.74,6095.00,928.25
495,871.30,1261.10,1597.50,5630.50,924.50
504,872.73,1279.98,971.54,4631.75,929.00
513,874.17,1298.80,3927.87,8691.00,924.50
522,875.60,1317.55,1769.79,5843.00,929.50
531,877.04,1336.24,3427.05,8612.25,911.25
540,878.47,1354.87,1860.02,6342.75,926.00
549,879.91,1373.43,1911.00,6074.25,929.50
558,881.34,1391.93,1216.64,4985.75,910.25
567,882.78,1410.36,1305.27,5138.50,918.25
576,884.21,1428.73,1932.97,6240.50,936.00
585,885.64,1447.03,9518.75,16925.25,915.25
594,887.08,1465.26,13997.04,22979.00,939.50
603,888.51,1483.43,3166.08,8262.00,928.00
612,889.94,1501.54,998.43,4704.25,913.50
621,891.37,1519.58,395.00,3780.50,907.00
630,892.80,1537.56,124.07,3385.00,916.25
639,894.23,1555.46,0.00,3072.25,916.50
648,895.66,1573.31,0.00,2934.00,916.75
657,897.09,1591.09,1.42,2848.25,912.75
666,898.52,1608.80,26.83,2808.00,915.75
675,899.95,1626.44,116.51,2850.00,921.75
684,901.37,1644.02,138.61,2814.50,922.50
693,902.80,1661.54,254.09,2897.50,931.25
702,904.22,1678.99,267.40,2818.75,913.25
711,905.64,1696.37,246.38,2718.50,927.25
720,907.07,1713.68,202.39,2561.75,914.75
729,908.49,1730.93,118.55,2379.25,918.50
738,909.91,1748.12,61.41,2229.25,922.00
747,911.33,1765.23,0.00,2073.50,918.00
756,912.75,1782.29,0.00,2001.50,916.00
765,914.16,1799.27,25.62,1995.00,914.50
774,915.58,1816.19,18.05,1933.50,908.75
783,916.99,1833.04,62.06,1949.50,917.75
792,918.41,1849.83,80.59,1923.75,922.00
801,919.82,1866.55,78.36,1866.00,915.50
810,921.23,1883.20,134.56,1895.75,929.00
819,922.64,1899.79,111.15,1803.50,911.00
828,924.05,1916.31,84.16,1737.50,918.50
837,925.46,1932.77,72.28,1681.50,919.75
846,926.86,1949.16,81.84,1645.00,921.75
855,928.27,1965.48,48.96,1550.00,908.75
864,929.67,1981.74,27.93,1497.50,918.75
873,931.07,1997.93,18.19,1448.50,923.00
882,932.47,2014.06,0.18,1381.00,913.00
891,933.87,2030.12,4.95,1348.75,913.50
900,935.27,2046.11,4.32,1338.25,938.50
909,936.66,2062.04,33.73,1331.50,934.25
918,938.06,2077.91,69.17,1313.25,911.25
927,939.45,2093.70,21.46,1245.25,920.00
936,940.84,2109.44,15.12,1203.75,917.50
945,942.23,2125.10,3.83,1172.75,921.50
954,943.62,2140.70,0.00,1142.75,929.00
963,945.00,2156.24,11.57,1132.00,911.25
972,946.39,2171.71,6.84,1123.75,915.50
981,947.77,2187.12,0.00,1108.50,913.50
990,949.15,2202.46,4.02,1124.50,920.00
999,950.53,2217.73,2.85,1119.00,915.25
1008,951.90,2232.94,39.67,1150.50,911.00
1017,953.28,2248.09,39.19,1165.50,926.00
1026,954.65,2263.17,68.03,1172.75,915.75
1035,956.02,2278.19,77.63,1188.00,919.75
1044,957.39,2293.14,89.98,1198.00,920.25
1053,958.75,2308.03,106.52,1200.75,917.75
1062,960.12,2322.85,117.14,1203.25,910.00
1071,961.48,2337.61,71.59,1182.75,918.25
1080,962.84,2352.31,141.58,1229.50,916.25
1089,964.20,2366.94,252.95,1307.25,918.75
1098,965.56,2381.51,270.28,1323.25,924.25
1107,966.91,2396.01,218.66,1279.75,920.50
1116,968.26,2410.45,172.92,1238.00,920.50
1125,969.61,2424.83,66.68,1158.50,915.00
1134,970.96,2439.14,20.51,1126.00,914.00
1143,972.30,2453.39,0.00,1113.50,915.25
1152,973.65,2467.58,11.28,1136.25,918.75
1161,974.99,2481.70,35.38,1166.00,917.50
1170,976.33,2495.76,80.27,1209.75,926.75
1179,977.66,2509.76,58.39,1200.00,921.00
1188,979.00,2523.70,6.77,1193.00,927.50
1197,980.33,2537.57,22.34,1208.75,911.50
1206,981.66,2551.38,0.00,1241.75,930.25
1215,982.98,2565.13,111.16,1338.25,913.00
1224,984.31,2578.82,498.54,1553.25,912.75
1233,985.63,2592.44,251.73,1478.50,919.00
1242,986.95,2606.01,41.30,1420.50,936.00
1251,988.27,2619.51,23.59,1436.25,935.50
1260,989.58,2632.95,21.35,1462.00,928.00
1269,990.89,2646.33,0.00,1482.25,951.25
1278,992.20,2659.65,139.14,1615.75,933.25
1287,993.51,2672.91,392.64,1769.25,930.75
1296,994.81,2686.10,0.00,1681.00,930.75
1305,996.12,2699.24,128.93,1873.00,932.00
1314,997.41,2712.32,2132.87,2838.00,937.00
1323,998.71,2725.33,4472.16,3613.00,925.50
1332,1000.01,2738.29,663.95,2317.75,938.50
1341,1001.30,2751.18,169.98,2183.50,952.50
1350,1002.59,2764.02,611.28,2395.50,947.00
1359,1003.87,2776.79,875.04,2494.75,932.50
1368,1005.15,2789.51,0.68,2278.50,932.75
1377,1006.43,2802.17,0.00,2358.25,929.50
1386,1007.71,2814.77,190.37,2741.75,917.50
1395,1008.99,2827.30,2120.46,3293.50,924.25
1404,1010.26,2839.78,4853.33,4066.50,937.00
1413,1011.53,2852.21,12376.24,6238.00,930.00
1422,1012.80,2864.57,39047.21,14130.50,953.50
1431,1014.06,2876.87,68492.93,20405.50,921.00
1440,1015.32,2889.12,44122.77,13972.00,937.75
1449,1016.58,2901.31,40786.61,12652.25,938.75
1458,1017.83,2913.44,40973.29,12115.00,926.50
1467,1019.09,2925.51,36506.36,10753.75,939.25
1476,1020.33,2937.53,35351.54,10076.50,949.25
1485,1021.58,2949.49,33888.90,9591.00,940.00
1494,1022.82,2961.39,39917.53,10131.50,932.75
1503,1024.07,2973.23,27113.89,7421.00,952.50
1512,1025.30,2985.02,13307.62,4485.00,931.75
1521,1026.54,2996.75,5123.24,2747.00,936.00
1530,1027.77,3008.43,1880.93,2040.25,938.50
1539,1029.00,3020.05,210.97,1661.75,922.50
1548,1030.22,3031.61,0.00,1463.25,928.75
1557,1031.45,3043.12,0.00,1345.25,927.50
1566,1032.67,3054.57,0.00,1262.00,923.25
1575,1033.88,3065.97,19.70,1200.75,910.00
1584,1035.10,3077.31,0.00,1183.25,934.50
1593,1036.31,3088.60,0.00,1169.00,936.00
1602,1037.52,3099.83,4.90,1152.75,927.75
1611,1038.72,3111.00,3.37,1160.75,944.50
1620,1039.92,3122.13,59.49,1153.75,936.25
1629,1041.12,3133.20,264.52,1175.00,945.00
1638,1042.32,3144.21,314.05,1160.50,931.50
1647,1043.51,3155.17,653.88,1189.50,933.25
1656,1044.70,3166.08,788.07,1211.25,953.25
1665,1045.88,3176.93,1098.46,1227.00,949.00
1674,1047.07,3187.73,1348.20,1214.50,924.50
1683,1048.24,3198.48,1493.26,1238.25,946.00
1692,1049.42,3209.17,1553.25,1229.75,946.25
1701,1050.59,3219.81,1901.14,1234.75,933.50
1710,1051.76,3230.40,1952.48,1235.75,944.50
1719,1052.93,3240.94,2179.23,1216.00,918.75
1728,1054.10,3251.42,2366.55,1232.75,937.25
1737,1055.26,3261.86,2500.24,1235.25,943.00
1746,1056.41,3272.24,2481.87,1231.00,954.50
1755,1057.57,3282.57,2489.93,1221.00,954.50
1764,1058.72,3292.85,2466.50,1199.00,944.75
1773,1059.87,3303.07,2698.10,1190.25,936.75
1782,1061.01,3313.25,2661.77,1180.00,936.25
1791,1062.15,3323.38,2671.48,1157.50,925.75
1800,1063.29,3333.45,2861.33,1160.00,931.25
1809,1064.42,3343.48,2722.14,1151.50,939.00
1818,1065.55,3353.45,2662.91,1132.00,931.25
1827,1066.68,3363.38,2824.83,1135.75,939.00
1836,1067.81,3373.25,2491.23,1095.00,917.75
1845,1068.93,3383.08,2646.30,1097.00,923.00
1854,1070.05,3392.85,2580.74,1113.50,953.50
1863,1071.16,3402.58,2275.14,1075.00,932.00
1872,1072.27,3412.26,2103.95,1070.75,937.50
1881,1073.38,3421.89,2048.28,1037.00,913.50
1890,1074.49,3431.47,1835.66,1038.50,926.50
1899,1075.59,3441.00,1797.93,1033.75,929.25
1908,1076.69,3450.49,1774.20,1039.00,940.00
1917,1077.78,3459.93,1925.93,1020.50,922.50
1926,1078.87,3469.32,1721.44,1025.25,935.00
1935,1079.96,3478.66,1556.58,1002.50,924.00
1944,1081.05,3487.95,944.64,1006.25,943.50
1953,1082.13,3497.20,1666.90,1007.25,934.25
1962,1083.21,3506.40,756.39,982.00,930.25
1971,1084.28,3515.56,975.64,1006.25,950.00
1980,1085.36,3524.67,1145.23,983.50,929.25
1989,1086.42,3533.73,761.77,967.00,922.50
1998,1087.49,3542.74,930.65,979.25,934.25
2007,1088.55,3551.71,892.81,963.50,920.75
2016,1089.61,3560.64,383.25,959.25,926.50
2025,1090.67,3569.52,567.16,957.25,923.00
2034,1091.72,3578.35,332.92,934.00,905.50
2043,1092.77,3587.14,369.46,935.00,907.75
2047,1093.23,3591.03,89.61,924.00,897.75