File: src/enlighten/plugins/Raman/MatchingLibrary/785X/acetonitrile.csv
ENLIGHTEN Version,4.1.22
Measurement ID,20250220-195618-676783-WP-01977
Serial Number,WP-01977
Model,WP-785X-F13-R-ILC
Detector,S16011-1106
Label,acetonitrile
Declared Match,
Declared Score,0
Scan Averaging,5
Boxcar,0
Technique,Raman
Baseline Correction Algo,AirPLS
ROI Pixel Start,47
ROI Pixel End,2047
ROI Start Line,0
ROI Stop Line,63
CCD C4,1.38617e-12
Slit Width,25
Cropped,True
Interpolated,False
Wavenumber Correction,-0.100481
Raman Intensity Corrected,True
Deconvolved,True
Region,
High Gain Mode,False
Laser Power mW,
Electrical Dark Correction,False
Battery %,
Device ID,<DeviceID USB:0x24aa:0x1000:0:1>
FW Version,10.0.0.10
FPGA Version,035-001
BLE Version,
Prefix,enlighten
Suffix,
Preset,
Auto-Raman,True
Session Count,0
Plugin Name,
Integration Time,211
Timestamp,2025-02-20 19:56:18.6768
Note,
Temperature,0
CCD C0,793.274
CCD C1,0.153259
CCD C2,1.40788e-05
CCD C3,-1.132e-08
CCD Offset,0
CCD Gain,1.9
CCD Offset Odd,0
CCD Gain Odd,1.9
Laser Wavelength,785.032
Laser Enable,False
Laser Power %,0
Laser Temperature,0
Pixel Count,2048

Pixel,Wavelength,Wavenumber,Processed,Raw,Dark
0,793.27,132.25,NA,907.00,892.40
9,794.65,154.15,NA,918.00,893.60
18,796.04,176.01,NA,928.80,902.00
27,797.42,197.83,NA,939.20,905.00
36,798.81,219.60,NA,936.20,896.00
45,800.20,241.33,NA,1897.40,900.00
54,801.59,263.02,30.10,1812.20,912.60
63,802.98,284.66,0.00,1709.00,909.60
72,804.38,306.26,16.02,1748.40,905.60
81,805.77,327.82,197.53,1954.80,897.20
90,807.17,349.32,752.99,2754.20,905.40
99,808.57,370.78,5519.42,9909.40,908.80
108,809.98,392.19,3747.72,7601.20,904.20
117,811.38,413.56,618.75,2492.60,907.40
126,812.79,434.87,232.22,1867.20,904.60
135,814.19,456.14,67.46,1572.40,888.80
144,815.60,477.36,4.59,1429.60,904.00
153,817.01,498.52,0.00,1311.20,904.20
162,818.42,519.64,0.00,1210.20,907.60
171,819.84,540.70,23.47,1191.60,894.20
180,821.25,561.71,0.00,1099.00,890.00
189,822.67,582.67,0.00,1073.40,895.80
198,824.09,603.57,2.52,1061.80,892.20
207,825.50,624.43,0.00,1057.60,907.00
216,826.92,645.22,2.29,1053.20,893.40
225,828.34,665.97,9.11,1060.40,890.00
234,829.77,686.66,3.07,1070.00,905.00
243,831.19,707.29,14.56,1093.00,905.60
252,832.61,727.87,82.59,1222.40,905.80
261,834.04,748.39,631.87,2062.00,900.40
270,835.47,768.85,174.14,1382.60,890.60
279,836.89,789.26,30.66,1137.20,900.40
288,838.32,809.61,13.61,1103.00,896.00
297,839.75,829.90,0.00,1096.80,907.00
306,841.18,850.14,3.30,1103.20,895.20
315,842.61,870.31,10.09,1140.20,895.80
324,844.04,890.43,84.69,1310.60,897.60
333,845.47,910.49,1412.72,5313.00,902.40
342,846.90,930.49,2009.01,6394.20,904.20
351,848.33,950.43,100.47,1379.40,901.40
360,849.77,970.31,17.85,1241.40,895.40
369,851.20,990.12,3.72,1233.80,900.40
378,852.63,1009.88,23.30,1282.60,908.00
387,854.07,1029.58,120.07,1452.60,899.40
396,855.50,1049.21,160.79,1523.60,902.20
405,856.94,1068.79,58.02,1359.00,900.40
414,858.37,1088.30,27.40,1302.20,890.40
423,859.81,1107.75,15.12,1303.00,904.60
432,861.25,1127.14,0.42,1290.20,905.40
441,862.68,1146.46,0.00,1277.60,890.80
450,864.12,1165.73,0.00,1298.40,897.20
459,865.55,1184.93,0.00,1313.20,883.80
468,866.99,1204.06,0.00,1385.60,894.80
477,868.43,1223.14,0.00,1469.80,893.20
486,869.86,1242.15,0.00,1598.40,893.60
495,871.30,1261.10,0.00,1782.20,895.20
504,872.73,1279.98,5.73,2042.20,894.60
513,874.17,1298.80,68.54,2316.00,893.80
522,875.60,1317.55,293.92,2694.60,901.20
531,877.04,1336.24,574.21,3142.40,889.20
540,878.47,1354.87,1133.51,4096.60,893.00
549,879.91,1373.43,6254.04,11115.80,900.40
558,881.34,1391.93,2212.53,5881.40,889.20
567,882.78,1410.36,2238.16,5750.40,891.60
576,884.21,1428.73,2155.84,5682.40,901.00
585,885.64,1447.03,2627.22,6270.60,888.40
594,887.08,1465.26,1728.53,4994.40,907.80
603,888.51,1483.43,1109.24,4014.40,899.60
612,889.94,1501.54,862.10,3606.80,888.40
621,891.37,1519.58,706.97,3367.40,883.00
630,892.80,1537.56,521.72,3102.40,889.20
639,894.23,1555.46,331.90,2828.40,890.40
648,895.66,1573.31,158.90,2582.80,891.60
657,897.09,1591.09,27.63,2385.60,894.20
666,898.52,1608.80,3.48,2252.60,888.40
675,899.95,1626.44,3.35,2163.00,892.20
684,901.37,1644.02,0.00,2077.80,892.60
693,902.80,1661.54,7.03,2041.80,904.00
702,904.22,1678.99,2.16,1955.60,886.80
711,905.64,1696.37,4.07,1908.40,895.40
720,907.07,1713.68,3.36,1841.00,886.40
729,908.49,1730.93,0.00,1779.80,892.80
738,909.91,1748.12,8.50,1755.80,893.40
747,911.33,1765.23,7.03,1714.80,893.00
756,912.75,1782.29,7.39,1672.00,888.20
765,914.16,1799.27,34.54,1670.20,891.60
774,915.58,1816.19,47.00,1651.80,888.00
783,916.99,1833.04,121.23,1709.20,893.00
792,918.41,1849.83,63.33,1603.00,895.60
801,919.82,1866.55,59.88,1555.80,890.40
810,921.23,1883.20,56.98,1523.80,896.60
819,922.64,1899.79,48.37,1472.60,887.60
828,924.05,1916.31,52.11,1444.00,890.60
837,925.46,1932.77,60.90,1420.20,893.40
846,926.86,1949.16,49.98,1374.40,889.40
855,928.27,1965.48,41.50,1326.80,884.00
864,929.67,1981.74,28.82,1286.40,890.40
873,931.07,1997.93,18.75,1248.80,892.40
882,932.47,2014.06,10.28,1203.60,888.80
891,933.87,2030.12,1.90,1171.60,890.80
900,935.27,2046.11,6.54,1161.00,901.40
909,936.66,2062.04,13.67,1142.00,897.00
918,938.06,2077.91,12.78,1116.20,890.00
927,939.45,2093.70,0.00,1085.80,890.40
936,940.84,2109.44,0.00,1072.20,888.80
945,942.23,2125.10,0.00,1075.00,896.40
954,943.62,2140.70,0.00,1073.20,896.80
963,945.00,2156.24,0.00,1086.80,888.00
972,946.39,2171.71,0.00,1134.80,891.00
981,947.77,2187.12,7.60,1224.80,886.00
990,949.15,2202.46,824.86,1857.60,895.40
999,950.53,2217.73,407.41,1644.40,888.80
1008,951.90,2232.94,1783.62,2985.00,886.40
1017,953.28,2248.09,29156.82,27792.20,907.80
1026,954.65,2263.17,4521.76,7807.40,890.80
1035,956.02,2278.19,1861.39,2941.80,896.00
1044,957.39,2293.14,5654.32,5193.40,897.00
1053,958.75,2308.03,650.21,1867.20,889.60
1062,960.12,2322.85,114.14,1345.60,888.40
1071,961.48,2337.61,5.12,1218.80,891.80
1080,962.84,2352.31,0.00,1136.40,895.00
1089,964.20,2366.94,0.00,1102.60,896.20
1098,965.56,2381.51,2.95,1087.80,895.60
1107,966.91,2396.01,49.68,1107.00,894.60
1116,968.26,2410.45,102.82,1124.80,890.40
1125,969.61,2424.83,77.91,1094.00,887.20
1134,970.96,2439.14,58.59,1073.00,893.20
1143,972.30,2453.39,36.83,1049.60,893.00
1152,973.65,2467.58,45.96,1044.00,893.00
1161,974.99,2481.70,69.68,1043.60,890.00
1170,976.33,2495.76,61.43,1028.80,892.20
1179,977.66,2509.76,30.73,997.60,890.00
1188,979.00,2523.70,21.02,987.40,895.20
1197,980.33,2537.57,22.49,970.00,886.00
1206,981.66,2551.38,3.18,969.20,899.20
1215,982.98,2565.13,0.00,954.00,893.20
1224,984.31,2578.82,15.97,953.60,888.80
1233,985.63,2592.44,4.41,948.80,889.20
1242,986.95,2606.01,12.68,961.00,902.00
1251,988.27,2619.51,9.39,958.40,902.60
1260,989.58,2632.95,26.73,962.80,902.60
1269,990.89,2646.33,23.45,967.80,909.40
1278,992.20,2659.65,0.01,949.60,901.60
1287,993.51,2672.91,8.03,950.80,896.40
1296,994.81,2686.10,0.00,956.20,898.60
1305,996.12,2699.24,4.47,977.00,903.60
1314,997.41,2712.32,138.47,1052.40,905.40
1323,998.71,2725.33,947.71,1400.20,898.00
1332,1000.01,2738.29,1568.00,1602.40,906.60
1341,1001.30,2751.18,404.54,1198.20,919.00
1350,1002.59,2764.02,150.87,1086.60,905.60
1359,1003.87,2776.79,3.30,1039.00,900.60
1368,1005.15,2789.51,0.00,1043.80,901.00
1377,1006.43,2802.17,0.00,1049.40,902.00
1386,1007.71,2814.77,0.00,1085.00,888.00
1395,1008.99,2827.30,0.00,1189.20,894.00
1404,1010.26,2839.78,484.72,1456.60,903.20
1413,1011.53,2852.21,81.29,1491.40,899.00
1422,1012.80,2864.57,28.19,1598.20,912.40
1431,1014.06,2876.87,494.90,1797.80,895.80
1440,1015.32,2889.12,144.55,1835.00,908.00
1449,1016.58,2901.31,72.60,1887.20,904.60
1458,1017.83,2913.44,1558.35,2228.00,898.60
1467,1019.09,2925.51,6680.28,3491.80,903.00
1476,1020.33,2937.53,41197.04,12288.00,912.80
1485,1021.58,2949.49,30962.17,10084.60,908.80
1494,1022.82,2961.39,7458.36,3327.80,900.80
1503,1024.07,2973.23,3417.00,2392.80,915.40
1512,1025.30,2985.02,3672.80,2348.80,894.60
1521,1026.54,2996.75,5750.40,2666.00,903.60
1530,1027.77,3008.43,5893.21,2611.00,906.60
1539,1029.00,3020.05,3050.61,2062.40,892.20
1548,1030.22,3031.61,1238.73,1711.20,903.00
1557,1031.45,3043.12,229.73,1506.80,899.20
1566,1032.67,3054.57,12.67,1403.00,897.20
1575,1033.88,3065.97,0.00,1312.60,888.00
1584,1035.10,3077.31,12.07,1274.20,901.00
1593,1036.31,3088.60,0.00,1227.80,905.60
1602,1037.52,3099.83,11.78,1184.20,900.00
1611,1038.72,3111.00,40.68,1159.20,909.00
1620,1039.92,3122.13,52.55,1120.40,902.40
1629,1041.12,3133.20,0.00,1096.00,912.00
1638,1042.32,3144.21,0.00,1063.40,899.20
1647,1043.51,3155.17,0.00,1051.20,903.80
1656,1044.70,3166.08,174.33,1064.20,912.00
1665,1045.88,3176.93,0.00,1033.60,906.60
1674,1047.07,3187.73,43.18,1019.20,895.40
1683,1048.24,3198.48,135.52,1031.60,910.80
1692,1049.42,3209.17,43.73,1019.40,911.60
1701,1050.59,3219.81,142.09,1011.00,902.20
1710,1051.76,3230.40,188.58,1018.20,908.20
1719,1052.93,3240.94,111.60,997.20,900.80
1728,1054.10,3251.42,356.93,1010.80,904.00
1737,1055.26,3261.86,344.79,1011.00,909.40
1746,1056.41,3272.24,283.50,1006.40,915.40
1755,1057.57,3282.57,359.53,1009.00,918.20
1764,1058.72,3292.85,403.11,997.00,907.80
1773,1059.87,3303.07,365.63,985.20,904.20
1782,1061.01,3313.25,467.60,986.80,905.00
1791,1062.15,3323.38,449.10,974.20,897.80
1800,1063.29,3333.45,438.57,973.40,901.60
1809,1064.42,3343.48,393.69,971.20,905.80
1818,1065.55,3353.45,503.86,966.40,900.80
1827,1066.68,3363.38,588.43,970.40,903.20
1836,1067.81,3373.25,562.88,953.20,893.20
1845,1068.93,3383.08,515.00,952.40,895.80
1854,1070.05,3392.85,612.89,971.40,915.40
1863,1071.16,3402.58,566.31,951.00,898.60
1872,1072.27,3412.26,273.19,947.80,909.40
1881,1073.38,3421.89,304.69,927.20,890.80
1890,1074.49,3431.47,407.72,936.20,898.40
1899,1075.59,3441.00,431.44,936.20,900.20
1908,1076.69,3450.49,639.24,947.80,908.60
1917,1077.78,3459.93,382.53,929.40,896.80
1926,1078.87,3469.32,616.46,939.20,905.40
1935,1079.96,3478.66,471.74,922.80,893.00
1944,1081.05,3487.95,440.86,936.40,910.00
1953,1082.13,3497.20,218.46,929.00,907.40
1962,1083.21,3506.40,143.81,920.80,902.60
1971,1084.28,3515.56,772.30,938.20,908.40
1980,1085.36,3524.67,442.04,923.80,900.40
1989,1086.42,3533.73,223.51,916.00,898.00
1998,1087.49,3542.74,555.42,922.80,898.60
2007,1088.55,3551.71,625.63,919.60,896.00
2016,1089.61,3560.64,546.89,913.20,891.60
2025,1090.67,3569.52,350.96,918.20,901.40
2034,1091.72,3578.35,242.05,902.40,886.40
2043,1092.77,3587.14,460.73,904.20,887.60
2047,1093.23,3591.03,1.02,891.80,881.20