File: src/enlighten/plugins/Raman/MatchingLibrary/785X/arginine.csv
ENLIGHTEN Version,4.1.22
Measurement ID,20250220-202757-986215-WP-01977
Serial Number,WP-01977
Model,WP-785X-F13-R-ILC
Detector,S16011-1106
Label,arginine
Declared Match,
Declared Score,0
Scan Averaging,2
Boxcar,0
Technique,Raman
Baseline Correction Algo,AirPLS
ROI Pixel Start,47
ROI Pixel End,2047
ROI Start Line,0
ROI Stop Line,63
CCD C4,1.38617e-12
Slit Width,25
Cropped,True
Interpolated,False
Wavenumber Correction,-0.100481
Raman Intensity Corrected,True
Deconvolved,True
Region,
High Gain Mode,False
Laser Power mW,
Electrical Dark Correction,False
Battery %,
Device ID,<DeviceID USB:0x24aa:0x1000:0:1>
FW Version,10.0.0.10
FPGA Version,035-001
BLE Version,
Prefix,enlighten
Suffix,
Preset,
Auto-Raman,True
Session Count,0
Plugin Name,
Integration Time,805
Timestamp,2025-02-20 20:27:57.9862
Note,
Temperature,0
CCD C0,793.274
CCD C1,0.153259
CCD C2,1.40788e-05
CCD C3,-1.132e-08
CCD Offset,0
CCD Gain,1.9
CCD Offset Odd,0
CCD Gain Odd,1.9
Laser Wavelength,785.032
Laser Enable,False
Laser Power %,0
Laser Temperature,0
Pixel Count,2048

Pixel,Wavelength,Wavenumber,Processed,Raw,Dark
0,793.27,132.25,NA,1111.00,1033.00
9,794.65,154.15,NA,1140.50,1048.00
18,796.04,176.01,NA,1172.00,1069.50
27,797.42,197.83,NA,1220.50,1090.00
36,798.81,219.60,NA,1236.50,1046.50
45,800.20,241.33,NA,7487.00,1063.50
54,801.59,263.02,98.55,7773.00,1115.00
63,802.98,284.66,318.50,7984.50,1102.00
72,804.38,306.26,2714.62,10934.50,1085.50
81,805.77,327.82,2503.07,10508.50,1072.00
90,807.17,349.32,2090.67,9926.50,1081.00
99,808.57,370.78,2089.30,10023.50,1092.00
108,809.98,392.19,1216.39,8587.00,1062.00
117,811.38,413.56,903.62,7891.50,1081.50
126,812.79,434.87,0.00,6527.00,1065.50
135,814.19,456.14,43.98,6483.00,1035.00
144,815.60,477.36,725.56,7615.00,1084.00
153,817.01,498.52,1801.91,9043.00,1095.00
162,818.42,519.64,0.00,6088.50,1076.00
171,819.84,540.70,784.11,7737.50,1047.50
180,821.25,561.71,1574.63,9086.50,1032.50
189,822.67,582.67,2082.59,9376.00,1055.00
198,824.09,603.57,1621.79,8852.00,1042.50
207,825.50,624.43,1321.38,8334.50,1087.50
216,826.92,645.22,994.25,7376.50,1057.00
225,828.34,665.97,471.82,6492.00,1031.00
234,829.77,686.66,120.42,5920.50,1149.00
243,831.19,707.29,32.36,5622.00,1089.00
252,832.61,727.87,0.00,5494.50,1085.50
261,834.04,748.39,431.21,6207.50,1047.50
270,835.47,768.85,0.00,5660.50,1038.00
279,836.89,789.26,398.49,6620.00,1064.50
288,838.32,809.61,160.19,6469.00,1069.50
297,839.75,829.90,79.98,6583.50,1102.50
306,841.18,850.14,4065.29,12635.50,1079.00
315,842.61,870.31,2207.05,10600.50,1072.00
324,844.04,890.43,439.10,8116.00,1043.50
333,845.47,910.49,1669.88,10234.00,1055.00
342,846.90,930.49,2068.07,11041.00,1072.00
351,848.33,950.43,43.64,7846.50,1071.00
360,849.77,970.31,4693.23,17283.00,1058.00
369,851.20,990.12,12467.94,30185.00,1081.00
378,852.63,1009.88,226.77,8724.50,1099.00
387,854.07,1029.58,2920.67,12684.00,1058.00
396,855.50,1049.21,823.24,10110.50,1057.00
405,856.94,1068.79,14629.47,30469.50,1064.50
414,858.37,1088.30,2179.67,12706.00,1030.50
423,859.81,1107.75,3540.87,14720.00,1083.50
432,861.25,1127.14,2394.15,11918.00,1082.00
441,862.68,1146.46,2.41,8114.50,1049.50
450,864.12,1165.73,954.52,9681.50,1060.50
459,865.55,1184.93,3858.51,14369.00,1018.50
468,866.99,1204.06,1945.25,11372.00,1056.00
477,868.43,1223.14,0.00,7773.50,1047.50
486,869.86,1242.15,18.29,8208.00,1050.00
495,871.30,1261.10,2725.27,12313.00,1051.00
504,872.73,1279.98,2881.96,13260.00,1048.50
513,874.17,1298.80,8281.28,21363.50,1054.00
522,875.60,1317.55,5128.37,17878.00,1063.50
531,877.04,1336.24,5290.57,17830.50,1021.00
540,878.47,1354.87,2592.71,13416.00,1039.00
549,879.91,1373.43,2377.55,13324.50,1050.00
558,881.34,1391.93,1846.68,12888.00,1020.00
567,882.78,1410.36,3585.12,16006.00,1036.00
576,884.21,1428.73,9169.47,25386.50,1066.50
585,885.64,1447.03,9287.04,24694.50,1033.00
594,887.08,1465.26,1998.90,14621.50,1073.00
603,888.51,1483.43,2121.10,14948.50,1053.00
612,889.94,1501.54,957.00,12434.50,1012.00
621,891.37,1519.58,376.45,11714.00,992.50
630,892.80,1537.56,438.91,11580.00,1038.00
639,894.23,1555.46,885.80,11879.00,1026.50
648,895.66,1573.31,1109.61,11881.00,1033.00
657,897.09,1591.09,475.36,10734.00,1018.00
666,898.52,1608.80,568.27,10577.00,1024.50
675,899.95,1626.44,1129.95,10960.50,1018.00
684,901.37,1644.02,143.50,9394.00,1042.00
693,902.80,1661.54,215.89,9160.50,1062.50
702,904.22,1678.99,289.77,8890.00,1019.00
711,905.64,1696.37,659.73,9095.50,1059.00
720,907.07,1713.68,1838.40,10192.50,1026.00
729,908.49,1730.93,866.88,8699.00,1030.50
738,909.91,1748.12,135.95,7334.00,1030.50
747,911.33,1765.23,37.66,6884.00,1024.50
756,912.75,1782.29,0.00,6516.00,1017.00
765,914.16,1799.27,54.89,6369.00,1038.00
774,915.58,1816.19,66.15,6133.00,1006.00
783,916.99,1833.04,202.48,6112.50,1046.50
792,918.41,1849.83,221.63,5915.00,1044.00
801,919.82,1866.55,217.26,5701.50,1031.00
810,921.23,1883.20,287.42,5584.00,1054.00
819,922.64,1899.79,257.83,5303.50,1010.50
828,924.05,1916.31,268.18,5136.50,1032.00
837,925.46,1932.77,258.94,4925.00,1029.50
846,926.86,1949.16,177.03,4646.00,1036.00
855,928.27,1965.48,169.97,4426.50,1015.00
864,929.67,1981.74,144.64,4219.00,1031.50
873,931.07,1997.93,98.10,3994.00,1043.50
882,932.47,2014.06,64.51,3750.00,1020.00
891,933.87,2030.12,8.87,3528.00,1030.50
900,935.27,2046.11,28.53,3416.50,1072.00
909,936.66,2062.04,37.13,3259.50,1061.50
918,938.06,2077.91,17.19,3044.50,1019.00
927,939.45,2093.70,0.00,2915.50,1036.00
936,940.84,2109.44,8.43,2812.00,1027.50
945,942.23,2125.10,36.45,2761.50,1049.00
954,943.62,2140.70,0.00,2649.50,1047.00
963,945.00,2156.24,9.13,2568.00,1008.50
972,946.39,2171.71,0.00,2533.00,1035.00
981,947.77,2187.12,10.93,2485.50,1009.50
990,949.15,2202.46,45.58,2514.50,1043.00
999,950.53,2217.73,50.40,2469.00,1018.00
1008,951.90,2232.94,71.98,2431.50,1003.50
1017,953.28,2248.09,78.77,2449.50,1060.00
1026,954.65,2263.17,30.95,2343.00,1021.50
1035,956.02,2278.19,68.85,2342.00,1031.00
1044,957.39,2293.14,36.72,2307.00,1044.50
1053,958.75,2308.03,38.23,2251.00,1022.00
1062,960.12,2322.85,55.30,2231.00,1024.00
1071,961.48,2337.61,17.93,2181.50,1033.50
1080,962.84,2352.31,41.13,2154.50,1021.00
1089,964.20,2366.94,36.64,2155.00,1051.00
1098,965.56,2381.51,64.46,2133.50,1042.00
1107,966.91,2396.01,43.73,2099.00,1048.00
1116,968.26,2410.45,6.61,2024.50,1031.00
1125,969.61,2424.83,4.14,1989.00,1016.00
1134,970.96,2439.14,31.60,2011.00,1032.50
1143,972.30,2453.39,87.70,2037.00,1028.50
1152,973.65,2467.58,38.68,2008.00,1035.50
1161,974.99,2481.70,58.93,2000.50,1022.00
1170,976.33,2495.76,54.74,2022.00,1041.50
1179,977.66,2509.76,167.93,2087.00,1049.00
1188,979.00,2523.70,171.12,2095.50,1058.50
1197,980.33,2537.57,5.37,1951.50,1003.00
1206,981.66,2551.38,19.72,2010.00,1056.00
1215,982.98,2565.13,56.29,2005.50,1029.50
1224,984.31,2578.82,0.50,1974.00,1023.50
1233,985.63,2592.44,99.10,2035.00,1029.50
1242,986.95,2606.01,249.60,2147.50,1070.50
1251,988.27,2619.51,164.69,2122.00,1072.50
1260,989.58,2632.95,201.42,2105.00,1062.50
1269,990.89,2646.33,0.00,2041.00,1091.00
1278,992.20,2659.65,98.03,2080.00,1058.00
1287,993.51,2672.91,12.65,2091.50,1065.50
1296,994.81,2686.10,12.76,2121.00,1065.50
1305,996.12,2699.24,1035.97,2515.00,1068.00
1314,997.41,2712.32,52.74,2239.00,1089.00
1323,998.71,2725.33,67.34,2242.50,1051.00
1332,1000.01,2738.29,997.51,2635.50,1074.00
1341,1001.30,2751.18,1237.84,2779.50,1123.00
1350,1002.59,2764.02,129.82,2371.50,1088.00
1359,1003.87,2776.79,0.00,2298.00,1071.00
1368,1005.15,2789.51,0.00,2359.00,1067.50
1377,1006.43,2802.17,0.00,2410.00,1059.50
1386,1007.71,2814.77,3.72,2549.00,1027.50
1395,1008.99,2827.30,98.81,2818.50,1039.00
1404,1010.26,2839.78,2794.65,3668.00,1069.50
1413,1011.53,2852.21,9494.27,5800.00,1056.00
1422,1012.80,2864.57,29330.23,10380.50,1105.50
1431,1014.06,2876.87,19697.43,8103.50,1036.00
1440,1015.32,2889.12,14500.14,6605.00,1076.00
1449,1016.58,2901.31,15410.54,6964.00,1070.00
1458,1017.83,2913.44,38947.94,11814.50,1052.00
1467,1019.09,2925.51,28726.13,9497.50,1072.00
1476,1020.33,2937.53,11180.96,5445.00,1094.50
1485,1021.58,2949.49,12330.29,5211.00,1073.00
1494,1022.82,2961.39,5609.77,3801.00,1062.50
1503,1024.07,2973.23,1214.86,2867.50,1117.00
1512,1025.30,2985.02,40.24,2473.50,1045.00
1521,1026.54,2996.75,0.00,2359.00,1067.50
1530,1027.77,3008.43,0.00,2273.50,1072.00
1539,1029.00,3020.05,58.42,2231.50,1037.00
1548,1030.22,3031.61,69.37,2237.50,1052.00
1557,1031.45,3043.12,193.25,2262.50,1072.00
1566,1032.67,3054.57,702.36,2301.50,1048.50
1575,1033.88,3065.97,1259.06,2312.50,994.00
1584,1035.10,3077.31,1367.53,2383.00,1077.00
1593,1036.31,3088.60,1386.97,2363.00,1075.00
1602,1037.52,3099.83,1546.85,2346.50,1061.50
1611,1038.72,3111.00,1579.78,2347.00,1090.00
1620,1039.92,3122.13,1823.75,2335.50,1079.00
1629,1041.12,3133.20,1524.40,2289.00,1090.00
1638,1042.32,3144.21,1428.64,2220.00,1057.50
1647,1043.51,3155.17,1175.38,2183.00,1080.00
1656,1044.70,3166.08,1015.38,2176.00,1112.00
1665,1045.88,3176.93,734.46,2116.00,1106.00
1674,1047.07,3187.73,410.80,2019.50,1056.50
1683,1048.24,3198.48,391.78,2033.50,1100.00
1692,1049.42,3209.17,830.54,2023.50,1084.00
1701,1050.59,3219.81,102.05,1920.00,1058.00
1710,1051.76,3230.40,61.94,1952.00,1100.50
1719,1052.93,3240.94,135.66,1901.00,1047.00
1728,1054.10,3251.42,517.37,1950.50,1090.00
1737,1055.26,3261.86,1914.52,2006.00,1094.50
1746,1056.41,3272.24,3588.45,2096.50,1116.50
1755,1057.57,3282.57,5997.64,2224.50,1130.50
1764,1058.72,3292.85,14181.99,2636.50,1096.00
1773,1059.87,3303.07,16948.80,2661.50,1082.50
1782,1061.01,3313.25,7432.82,2085.50,1073.00
1791,1062.15,3323.38,3958.49,1834.00,1068.00
1800,1063.29,3333.45,3040.32,1750.50,1077.00
1809,1064.42,3343.48,2602.57,1699.50,1081.50
1818,1065.55,3353.45,4847.07,1788.00,1077.50
1827,1066.68,3363.38,10069.50,1922.50,1088.00
1836,1067.81,3373.25,2814.51,1562.50,1025.00
1845,1068.93,3383.08,1282.09,1465.00,1035.00
1854,1070.05,3392.85,845.00,1508.00,1114.00
1863,1071.16,3402.58,409.95,1414.00,1069.50
1872,1072.27,3412.26,852.32,1409.00,1074.00
1881,1073.38,3421.89,64.79,1313.00,1026.00
1890,1074.49,3431.47,208.70,1314.00,1045.50
1899,1075.59,3441.00,1349.83,1325.50,1051.50
1908,1076.69,3450.49,727.95,1321.00,1081.00
1917,1077.78,3459.93,506.05,1253.50,1039.00
1926,1078.87,3469.32,882.23,1295.50,1086.50
1935,1079.96,3478.66,756.24,1235.00,1049.00
1944,1081.05,3487.95,670.90,1259.00,1086.50
1953,1082.13,3497.20,1059.95,1239.00,1073.00
1962,1083.21,3506.40,530.29,1193.50,1052.50
1971,1084.28,3515.56,1992.05,1253.00,1096.50
1980,1085.36,3524.67,764.72,1190.00,1061.50
1989,1086.42,3533.73,894.35,1163.00,1047.50
1998,1087.49,3542.74,594.03,1175.50,1066.50
2007,1088.55,3551.71,696.31,1137.50,1039.00
2016,1089.61,3560.64,2384.93,1156.00,1039.00
2025,1090.67,3569.52,950.86,1147.00,1055.00
2034,1091.72,3578.35,1014.06,1088.00,1003.00
2043,1092.77,3587.14,764.97,1082.50,1008.00
2047,1093.23,3591.03,0.00,1056.00,997.00