File: src/enlighten/plugins/Raman/MatchingLibrary/785X/coconut oil.csv
ENLIGHTEN Version,4.1.22
Measurement ID,20250220-202018-780882-WP-01977
Serial Number,WP-01977
Model,WP-785X-F13-R-ILC
Detector,S16011-1106
Label,coconut oil
Declared Match,
Declared Score,0
Scan Averaging,3
Boxcar,0
Technique,Raman
Baseline Correction Algo,AirPLS
ROI Pixel Start,47
ROI Pixel End,2047
ROI Start Line,0
ROI Stop Line,63
CCD C4,1.38617e-12
Slit Width,25
Cropped,True
Interpolated,False
Wavenumber Correction,-0.100481
Raman Intensity Corrected,True
Deconvolved,True
Region,
High Gain Mode,False
Laser Power mW,
Electrical Dark Correction,False
Battery %,
Device ID,<DeviceID USB:0x24aa:0x1000:0:1>
FW Version,10.0.0.10
FPGA Version,035-001
BLE Version,
Prefix,enlighten
Suffix,
Preset,
Auto-Raman,True
Session Count,0
Plugin Name,
Integration Time,456
Timestamp,2025-02-20 20:20:18.7809
Note,
Temperature,0
CCD C0,793.274
CCD C1,0.153259
CCD C2,1.40788e-05
CCD C3,-1.132e-08
CCD Offset,0
CCD Gain,1.9
CCD Offset Odd,0
CCD Gain Odd,1.9
Laser Wavelength,785.032
Laser Enable,False
Laser Power %,0
Laser Temperature,0
Pixel Count,2048

Pixel,Wavelength,Wavenumber,Processed,Raw,Dark
0,793.27,132.25,NA,1024.67,947.00
9,794.65,154.15,NA,1037.33,963.67
18,796.04,176.01,NA,1062.00,972.67
27,797.42,197.83,NA,1098.33,978.00
36,798.81,219.60,NA,1133.33,968.67
45,800.20,241.33,NA,10372.67,975.33
54,801.59,263.02,540.43,10649.67,996.00
63,802.98,284.66,187.98,9953.67,989.33
72,804.38,306.26,0.00,9385.67,984.33
81,805.77,327.82,15.05,9165.33,969.67
90,807.17,349.32,107.69,9020.00,979.67
99,808.57,370.78,0.00,8493.00,981.67
108,809.98,392.19,270.94,8814.67,973.67
117,811.38,413.56,453.46,8943.67,982.67
126,812.79,434.87,185.51,8386.33,975.33
135,814.19,456.14,287.37,8321.33,951.33
144,815.60,477.36,177.75,8035.00,980.00
153,817.01,498.52,191.53,7846.67,983.67
162,818.42,519.64,150.83,7593.33,987.33
171,819.84,540.70,46.38,7194.00,961.67
180,821.25,561.71,0.00,6838.33,952.00
189,822.67,582.67,332.90,7426.67,964.67
198,824.09,603.57,1005.93,8417.67,956.33
207,825.50,624.43,549.13,7738.00,984.00
216,826.92,645.22,481.54,7558.33,971.67
225,828.34,665.97,261.32,7132.00,954.33
234,829.77,686.66,0.00,6722.67,1069.33
243,831.19,707.29,0.32,6807.33,990.33
252,832.61,727.87,418.88,7640.67,983.67
261,834.04,748.39,373.30,7790.67,969.67
270,835.47,768.85,410.79,8028.00,959.33
279,836.89,789.26,463.42,8362.33,966.67
288,838.32,809.61,1051.39,9620.00,979.33
297,839.75,829.90,3703.11,14229.00,991.67
306,841.18,850.14,4421.48,15704.67,974.33
315,842.61,870.31,5660.05,17729.00,982.00
324,844.04,890.43,5730.64,18015.00,959.33
333,845.47,910.49,3029.98,14045.00,964.00
342,846.90,930.49,2495.55,13132.00,974.33
351,848.33,950.43,909.61,10625.67,973.33
360,849.77,970.31,223.39,9609.67,967.00
369,851.20,990.12,183.82,9583.33,975.00
378,852.63,1009.88,1255.42,11301.00,993.00
387,854.07,1029.58,2819.33,13725.33,961.33
396,855.50,1049.21,3169.58,14568.67,969.00
405,856.94,1068.79,6554.94,20043.33,975.67
414,858.37,1088.30,4676.77,16729.33,954.33
423,859.81,1107.75,2531.95,13333.33,983.67
432,861.25,1127.14,3449.36,14510.67,979.67
441,862.68,1146.46,498.15,9260.67,962.67
450,864.12,1165.73,656.40,9406.33,967.67
459,865.55,1184.93,12.55,8265.33,942.33
468,866.99,1204.06,0.00,8086.67,960.67
477,868.43,1223.14,0.99,8415.67,968.00
486,869.86,1242.15,748.57,9826.00,962.00
495,871.30,1261.10,1778.44,11662.33,963.00
504,872.73,1279.98,3327.22,14431.33,962.00
513,874.17,1298.80,11522.70,26907.00,968.67
522,875.60,1317.55,5601.00,18638.33,969.67
531,877.04,1336.24,1434.92,11830.67,948.67
540,878.47,1354.87,1017.98,11243.00,958.00
549,879.91,1373.43,995.47,11239.67,958.00
558,881.34,1391.93,47.95,9942.00,938.00
567,882.78,1410.36,1469.87,12169.00,943.00
576,884.21,1428.73,7969.54,23216.00,974.67
585,885.64,1447.03,18913.67,38604.00,955.33
594,887.08,1465.26,10700.37,25378.67,978.00
603,888.51,1483.43,2069.29,11966.00,967.33
612,889.94,1501.54,454.25,9073.00,941.67
621,891.37,1519.58,1.56,8059.67,936.00
630,892.80,1537.56,0.00,7592.67,950.67
639,894.23,1555.46,0.00,7137.33,953.67
648,895.66,1573.31,0.00,6799.00,952.67
657,897.09,1591.09,0.00,6589.67,945.00
666,898.52,1608.80,0.00,6422.00,952.00
675,899.95,1626.44,63.17,6394.00,947.67
684,901.37,1644.02,51.43,6305.67,953.00
693,902.80,1661.54,232.51,6429.33,973.33
702,904.22,1678.99,3.93,5984.67,939.67
711,905.64,1696.37,119.82,6004.00,967.67
720,907.07,1713.68,347.62,6154.67,947.67
729,908.49,1730.93,2301.85,8724.33,954.33
738,909.91,1748.12,5900.11,12710.33,952.33
747,911.33,1765.23,836.87,6392.33,950.33
756,912.75,1782.29,127.97,5093.67,940.67
765,914.16,1799.27,28.49,4812.00,946.33
774,915.58,1816.19,0.00,4569.67,944.33
783,916.99,1833.04,63.70,4530.33,964.67
792,918.41,1849.83,40.04,4367.67,955.33
801,919.82,1866.55,43.49,4240.00,955.67
810,921.23,1883.20,85.79,4166.00,959.00
819,922.64,1899.79,58.00,3991.67,934.67
828,924.05,1916.31,15.33,3846.33,954.33
837,925.46,1932.77,103.18,3805.33,944.33
846,926.86,1949.16,56.81,3651.67,951.33
855,928.27,1965.48,42.23,3518.00,940.67
864,929.67,1981.74,39.63,3412.67,954.33
873,931.07,1997.93,40.26,3304.33,955.33
882,932.47,2014.06,6.81,3158.33,947.33
891,933.87,2030.12,2.65,3059.33,953.33
900,935.27,2046.11,2.56,2987.67,976.00
909,936.66,2062.04,1.60,2899.00,972.33
918,938.06,2077.91,1.56,2796.00,945.00
927,939.45,2093.70,0.00,2722.00,963.33
936,940.84,2109.44,36.40,2716.67,941.67
945,942.23,2125.10,45.08,2703.33,955.33
954,943.62,2140.70,24.43,2635.33,955.00
963,945.00,2156.24,49.66,2606.67,939.33
972,946.39,2171.71,144.99,2668.33,949.00
981,947.77,2187.12,314.90,2755.00,941.67
990,949.15,2202.46,185.26,2629.33,961.33
999,950.53,2217.73,111.06,2512.33,944.33
1008,951.90,2232.94,128.32,2472.67,941.00
1017,953.28,2248.09,37.11,2376.33,958.67
1026,954.65,2263.17,65.98,2334.00,943.00
1035,956.02,2278.19,19.47,2277.33,956.00
1044,957.39,2293.14,33.91,2251.33,957.33
1053,958.75,2308.03,10.49,2180.67,939.67
1062,960.12,2322.85,8.49,2146.33,943.67
1071,961.48,2337.61,37.09,2135.67,949.00
1080,962.84,2352.31,14.10,2085.33,948.33
1089,964.20,2366.94,0.00,2042.00,955.33
1098,965.56,2381.51,0.00,2006.67,954.67
1107,966.91,2396.01,40.87,2042.33,961.33
1116,968.26,2410.45,19.87,2007.00,951.33
1125,969.61,2424.83,107.18,2030.67,937.00
1134,970.96,2439.14,129.41,2033.67,944.33
1143,972.30,2453.39,43.60,1972.00,952.00
1152,973.65,2467.58,11.09,1939.00,954.00
1161,974.99,2481.70,45.21,1948.00,950.00
1170,976.33,2495.76,14.18,1929.00,957.33
1179,977.66,2509.76,0.00,1900.33,952.67
1188,979.00,2523.70,0.16,1951.33,964.00
1197,980.33,2537.57,0.00,1973.67,948.00
1206,981.66,2551.38,9.08,2058.67,969.67
1215,982.98,2565.13,0.00,2080.67,947.67
1224,984.31,2578.82,68.90,2196.67,953.67
1233,985.63,2592.44,261.79,2344.67,945.33
1242,986.95,2606.01,188.23,2405.67,979.67
1251,988.27,2619.51,84.71,2397.67,969.00
1260,989.58,2632.95,91.09,2439.00,962.67
1269,990.89,2646.33,124.73,2522.67,987.00
1278,992.20,2659.65,487.22,2679.00,967.67
1287,993.51,2672.91,1048.37,2915.33,963.33
1296,994.81,2686.10,1133.18,2973.67,969.33
1305,996.12,2699.24,1533.58,3168.00,976.00
1314,997.41,2712.32,3514.25,3911.00,974.00
1323,998.71,2725.33,5342.78,4549.33,958.67
1332,1000.01,2738.29,3860.25,3995.00,980.33
1341,1001.30,2751.18,1177.99,2991.33,1002.33
1350,1002.59,2764.02,84.30,2556.00,975.33
1359,1003.87,2776.79,0.00,2461.67,975.67
1368,1005.15,2789.51,0.00,2550.67,969.67
1377,1006.43,2802.17,0.00,2784.00,966.67
1386,1007.71,2814.77,260.95,3461.00,952.00
1395,1008.99,2827.30,4784.90,4887.00,959.00
1404,1010.26,2839.78,20154.72,10312.67,978.00
1413,1011.53,2852.21,81264.17,25426.33,972.33
1422,1012.80,2864.57,71339.01,23844.67,999.33
1431,1014.06,2876.87,77713.70,24302.00,964.00
1440,1015.32,2889.12,81691.85,24659.00,987.33
1449,1016.58,2901.31,83809.15,24554.33,971.00
1458,1017.83,2913.44,84902.94,23952.00,964.00
1467,1019.09,2925.51,81145.12,22481.67,974.00
1476,1020.33,2937.53,77238.58,20431.00,991.33
1485,1021.58,2949.49,47816.12,14022.00,980.33
1494,1022.82,2961.39,39675.55,11364.33,974.33
1503,1024.07,2973.23,22054.07,7666.33,1000.00
1512,1025.30,2985.02,9495.24,4924.33,958.00
1521,1026.54,2996.75,3389.30,3637.00,974.00
1530,1027.77,3008.43,323.48,2916.00,975.33
1539,1029.00,3020.05,0.00,2338.67,953.00
1548,1030.22,3031.61,0.00,1960.67,963.33
1557,1031.45,3043.12,0.00,1739.67,980.00
1566,1032.67,3054.57,0.00,1591.67,959.33
1575,1033.88,3065.97,0.00,1464.33,931.00
1584,1035.10,3077.31,18.02,1426.67,970.00
1593,1036.31,3088.60,36.53,1372.00,972.00
1602,1037.52,3099.83,143.30,1330.33,966.00
1611,1038.72,3111.00,0.00,1292.33,981.67
1620,1039.92,3122.13,55.48,1273.33,980.67
1629,1041.12,3133.20,0.00,1246.67,987.00
1638,1042.32,3144.21,2.42,1221.00,968.67
1647,1043.51,3155.17,69.80,1224.67,975.33
1656,1044.70,3166.08,65.97,1235.33,991.67
1665,1045.88,3176.93,100.24,1229.33,988.67
1674,1047.07,3187.73,208.73,1211.67,969.00
1683,1048.24,3198.48,272.12,1233.00,993.67
1692,1049.42,3209.17,293.91,1213.33,984.67
1701,1050.59,3219.81,443.66,1202.00,969.00
1710,1051.76,3230.40,827.34,1237.00,991.00
1719,1052.93,3240.94,736.40,1191.67,959.33
1728,1054.10,3251.42,871.19,1221.00,989.00
1737,1055.26,3261.86,992.64,1215.00,987.33
1746,1056.41,3272.24,1085.85,1221.67,995.67
1755,1057.57,3282.57,1053.22,1213.33,1001.33
1764,1058.72,3292.85,1173.50,1191.67,984.67
1773,1059.87,3303.07,1048.08,1165.00,974.00
1782,1061.01,3313.25,1104.98,1163.33,977.67
1791,1062.15,3323.38,1049.41,1144.00,969.00
1800,1063.29,3333.45,1168.15,1137.33,965.67
1809,1064.42,3343.48,1147.45,1139.00,979.00
1818,1065.55,3353.45,1209.31,1129.00,971.00
1827,1066.68,3363.38,1232.12,1130.33,979.00
1836,1067.81,3373.25,1024.61,1092.33,955.67
1845,1068.93,3383.08,1205.60,1087.33,953.33
1854,1070.05,3392.85,1326.87,1128.33,996.00
1863,1071.16,3402.58,933.16,1081.33,968.00
1872,1072.27,3412.26,747.30,1078.67,974.33
1881,1073.38,3421.89,1089.94,1047.33,939.67
1890,1074.49,3431.47,1197.52,1064.67,961.00
1899,1075.59,3441.00,709.38,1055.67,966.67
1908,1076.69,3450.49,706.58,1061.33,978.33
1917,1077.78,3459.93,907.60,1039.33,956.33
1926,1078.87,3469.32,956.37,1059.00,977.00
1935,1079.96,3478.66,493.82,1035.33,967.00
1944,1081.05,3487.95,886.28,1050.67,981.00
1953,1082.13,3497.20,861.82,1039.33,970.67
1962,1083.21,3506.40,471.09,1016.33,958.33
1971,1084.28,3515.56,805.53,1055.00,997.33
1980,1085.36,3524.67,639.55,1018.00,966.33
1989,1086.42,3533.73,575.05,1004.67,955.00
1998,1087.49,3542.74,713.44,1012.67,965.33
2007,1088.55,3551.71,881.03,1001.33,953.33
2016,1089.61,3560.64,501.83,996.67,956.33
2025,1090.67,3569.52,1462.18,1004.67,954.33
2034,1091.72,3578.35,432.54,974.00,935.33
2043,1092.77,3587.14,1129.10,975.00,934.67
2047,1093.23,3591.03,30.33,955.00,923.67