File: src/enlighten/plugins/Raman/MatchingLibrary/785X/EDTA.csv
ENLIGHTEN Version,4.1.22
Measurement ID,20250220-202832-871368-WP-01977
Serial Number,WP-01977
Model,WP-785X-F13-R-ILC
Detector,S16011-1106
Label,EDTA
Declared Match,
Declared Score,0
Scan Averaging,1
Boxcar,0
Technique,Raman
Baseline Correction Algo,AirPLS
ROI Pixel Start,47
ROI Pixel End,2047
ROI Start Line,0
ROI Stop Line,63
CCD C4,1.38617e-12
Slit Width,25
Cropped,True
Interpolated,False
Wavenumber Correction,-0.100481
Raman Intensity Corrected,True
Deconvolved,True
Region,
High Gain Mode,False
Laser Power mW,
Electrical Dark Correction,False
Battery %,
Device ID,<DeviceID USB:0x24aa:0x1000:0:1>
FW Version,10.0.0.10
FPGA Version,035-001
BLE Version,
Prefix,enlighten
Suffix,
Preset,
Auto-Raman,True
Session Count,0
Plugin Name,
Integration Time,1134
Timestamp,2025-02-20 20:28:32.8714
Note,
Temperature,0
CCD C0,793.274
CCD C1,0.153259
CCD C2,1.40788e-05
CCD C3,-1.132e-08
CCD Offset,0
CCD Gain,1.9
CCD Offset Odd,0
CCD Gain Odd,1.9
Laser Wavelength,785.032
Laser Enable,False
Laser Power %,0
Laser Temperature,0
Pixel Count,2048

Pixel,Wavelength,Wavenumber,Processed,Raw,Dark
0,793.27,132.25,NA,1177.00,1093.00
9,794.65,154.15,NA,1203.00,1121.00
18,796.04,176.01,NA,1268.00,1163.00
27,797.42,197.83,NA,1308.00,1192.00
36,798.81,219.60,NA,1308.00,1137.00
45,800.20,241.33,NA,7931.00,1133.00
54,801.59,263.02,5.61,6361.00,1197.00
63,802.98,284.66,1110.92,7690.00,1207.00
72,804.38,306.26,1788.94,8470.00,1188.00
81,805.77,327.82,1334.29,8187.00,1148.00
90,807.17,349.32,7533.09,15903.00,1182.00
99,808.57,370.78,860.46,7390.00,1203.00
108,809.98,392.19,196.41,6281.00,1154.00
117,811.38,413.56,1.13,5921.00,1184.00
126,812.79,434.87,163.78,5959.00,1154.00
135,814.19,456.14,2556.22,9915.00,1125.00
144,815.60,477.36,4899.80,12943.00,1169.00
153,817.01,498.52,1761.13,8206.00,1194.00
162,818.42,519.64,5.83,4837.00,1163.00
171,819.84,540.70,43.55,4689.00,1129.00
180,821.25,561.71,672.34,5414.00,1112.00
189,822.67,582.67,4.71,4303.00,1148.00
198,824.09,603.57,1317.43,6338.00,1102.00
207,825.50,624.43,2424.62,7880.00,1186.00
216,826.92,645.22,0.00,3760.00,1137.00
225,828.34,665.97,0.00,3620.00,1112.00
234,829.77,686.66,281.26,4326.00,1275.00
243,831.19,707.29,3014.56,8672.00,1211.00
252,832.61,727.87,531.05,4632.00,1186.00
261,834.04,748.39,0.00,3460.00,1129.00
270,835.47,768.85,15.39,3504.00,1123.00
279,836.89,789.26,52.81,3614.00,1137.00
288,838.32,809.61,65.97,3616.00,1125.00
297,839.75,829.90,36.13,3645.00,1192.00
306,841.18,850.14,0.00,3538.00,1159.00
315,842.61,870.31,48.32,3829.00,1146.00
324,844.04,890.43,2508.43,9830.00,1127.00
333,845.47,910.49,5434.91,16833.00,1137.00
342,846.90,930.49,1416.98,7977.00,1167.00
351,848.33,950.43,5089.62,14916.00,1156.00
360,849.77,970.31,1356.19,8045.00,1142.00
369,851.20,990.12,5688.60,11975.00,1165.00
378,852.63,1009.88,0.00,4269.00,1199.00
387,854.07,1029.58,35.18,4575.00,1108.00
396,855.50,1049.21,1857.84,7764.00,1135.00
405,856.94,1068.79,894.59,6843.00,1163.00
414,858.37,1088.30,3538.05,12138.00,1093.00
423,859.81,1107.75,16867.90,28146.00,1190.00
432,861.25,1127.14,1353.43,8812.00,1171.00
441,862.68,1146.46,713.53,7719.00,1125.00
450,864.12,1165.73,0.00,5571.00,1131.00
459,865.55,1184.93,0.00,5668.00,1076.00
468,866.99,1204.06,0.00,6614.00,1140.00
477,868.43,1223.14,4330.86,15639.00,1139.00
486,869.86,1242.15,341.79,9609.00,1121.00
495,871.30,1261.10,436.22,10462.00,1127.00
504,872.73,1279.98,529.70,11316.00,1135.00
513,874.17,1298.80,920.62,12305.00,1135.00
522,875.60,1317.55,10022.69,28861.00,1150.00
531,877.04,1336.24,8775.22,25321.00,1102.00
540,878.47,1354.87,6561.16,20187.00,1129.00
549,879.91,1373.43,7064.20,22044.00,1129.00
558,881.34,1391.93,17624.61,38570.00,1085.00
567,882.78,1410.36,10630.49,29218.00,1101.00
576,884.21,1428.73,15520.88,33038.00,1161.00
585,885.64,1447.03,1254.38,13860.00,1114.00
594,887.08,1465.26,10033.12,27702.00,1156.00
603,888.51,1483.43,858.44,14061.00,1146.00
612,889.94,1501.54,182.34,12034.00,1089.00
621,891.37,1519.58,65.83,11584.00,1066.00
630,892.80,1537.56,32.84,11248.00,1104.00
639,894.23,1555.46,58.65,10946.00,1097.00
648,895.66,1573.31,188.79,10881.00,1106.00
657,897.09,1591.09,1753.69,12590.00,1097.00
666,898.52,1608.80,2822.55,13733.00,1095.00
675,899.95,1626.44,896.56,11100.00,1099.00
684,901.37,1644.02,2021.45,12449.00,1121.00
693,902.80,1661.54,3778.31,14663.00,1190.00
702,904.22,1678.99,2396.68,12254.00,1082.00
711,905.64,1696.37,544.13,9473.00,1139.00
720,907.07,1713.68,268.17,8795.00,1108.00
729,908.49,1730.93,10.31,8180.00,1106.00
738,909.91,1748.12,123.03,7956.00,1120.00
747,911.33,1765.23,3.57,7489.00,1104.00
756,912.75,1782.29,88.90,7276.00,1078.00
765,914.16,1799.27,190.93,7145.00,1099.00
774,915.58,1816.19,86.96,6777.00,1085.00
783,916.99,1833.04,222.67,6739.00,1121.00
792,918.41,1849.83,297.21,6551.00,1110.00
801,919.82,1866.55,393.62,6412.00,1104.00
810,921.23,1883.20,536.85,6340.00,1121.00
819,922.64,1899.79,399.63,5940.00,1099.00
828,924.05,1916.31,558.34,5847.00,1099.00
837,925.46,1932.77,439.87,5501.00,1114.00
846,926.86,1949.16,421.54,5243.00,1120.00
855,928.27,1965.48,279.07,4860.00,1091.00
864,929.67,1981.74,351.58,4710.00,1116.00
873,931.07,1997.93,159.44,4322.00,1135.00
882,932.47,2014.06,140.15,4053.00,1101.00
891,933.87,2030.12,44.51,3783.00,1129.00
900,935.27,2046.11,17.14,3591.00,1148.00
909,936.66,2062.04,17.06,3388.00,1150.00
918,938.06,2077.91,50.89,3217.00,1102.00
927,939.45,2093.70,5.31,3056.00,1121.00
936,940.84,2109.44,144.73,3035.00,1108.00
945,942.23,2125.10,61.96,2859.00,1133.00
954,943.62,2140.70,26.02,2684.00,1116.00
963,945.00,2156.24,84.54,2610.00,1085.00
972,946.39,2171.71,3.48,2483.00,1106.00
981,947.77,2187.12,20.49,2405.00,1080.00
990,949.15,2202.46,11.90,2386.00,1102.00
999,950.53,2217.73,61.60,2359.00,1093.00
1008,951.90,2232.94,18.05,2257.00,1061.00
1017,953.28,2248.09,0.00,2287.00,1142.00
1026,954.65,2263.17,7.68,2232.00,1101.00
1035,956.02,2278.19,10.37,2232.00,1116.00
1044,957.39,2293.14,175.54,2325.00,1125.00
1053,958.75,2308.03,68.45,2242.00,1120.00
1062,960.12,2322.85,65.69,2192.00,1087.00
1071,961.48,2337.61,68.11,2194.00,1106.00
1080,962.84,2352.31,98.90,2200.00,1120.00
1089,964.20,2366.94,85.76,2169.00,1121.00
1098,965.56,2381.51,183.88,2202.00,1116.00
1107,966.91,2396.01,137.22,2152.00,1118.00
1116,968.26,2410.45,8.32,2057.00,1123.00
1125,969.61,2424.83,74.52,2021.00,1080.00
1134,970.96,2439.14,64.86,2052.00,1108.00
1143,972.30,2453.39,287.51,2150.00,1099.00
1152,973.65,2467.58,158.09,2063.00,1110.00
1161,974.99,2481.70,216.76,2050.00,1095.00
1170,976.33,2495.76,192.52,2035.00,1127.00
1179,977.66,2509.76,0.00,1909.00,1133.00
1188,979.00,2523.70,147.24,1964.00,1133.00
1197,980.33,2537.57,162.08,1915.00,1087.00
1206,981.66,2551.38,33.47,1904.00,1156.00
1215,982.98,2565.13,14.62,1816.00,1082.00
1224,984.31,2578.82,132.98,1856.00,1082.00
1233,985.63,2592.44,96.49,1854.00,1102.00
1242,986.95,2606.01,69.98,1913.00,1173.00
1251,988.27,2619.51,68.34,1904.00,1167.00
1260,989.58,2632.95,244.04,1955.00,1142.00
1269,990.89,2646.33,304.35,2035.00,1207.00
1278,992.20,2659.65,35.88,1854.00,1135.00
1287,993.51,2672.91,63.40,1869.00,1150.00
1296,994.81,2686.10,11.72,1847.00,1148.00
1305,996.12,2699.24,126.60,1917.00,1159.00
1314,997.41,2712.32,41.44,1926.00,1156.00
1323,998.71,2725.33,18.80,1926.00,1131.00
1332,1000.01,2738.29,97.47,2010.00,1167.00
1341,1001.30,2751.18,124.48,2139.00,1247.00
1350,1002.59,2764.02,94.86,2128.00,1201.00
1359,1003.87,2776.79,262.83,2160.00,1156.00
1368,1005.15,2789.51,212.27,2175.00,1169.00
1377,1006.43,2802.17,358.82,2209.00,1154.00
1386,1007.71,2814.77,0.12,2084.00,1110.00
1395,1008.99,2827.30,0.00,2116.00,1129.00
1404,1010.26,2839.78,0.00,2251.00,1192.00
1413,1011.53,2852.21,333.22,2359.00,1135.00
1422,1012.80,2864.57,9.78,2426.00,1218.00
1431,1014.06,2876.87,272.93,2483.00,1118.00
1440,1015.32,2889.12,1.38,2511.00,1178.00
1449,1016.58,2901.31,54.23,2650.00,1154.00
1458,1017.83,2913.44,2046.92,3111.00,1114.00
1467,1019.09,2925.51,292.08,2927.00,1142.00
1476,1020.33,2937.53,2643.17,3419.00,1194.00
1485,1021.58,2949.49,10228.56,5511.00,1184.00
1494,1022.82,2961.39,43879.00,10822.00,1154.00
1503,1024.07,2973.23,28467.49,8429.00,1218.00
1512,1025.30,2985.02,32670.26,8569.00,1125.00
1521,1026.54,2996.75,19670.67,6371.00,1148.00
1530,1027.77,3008.43,13962.27,5270.00,1165.00
1539,1029.00,3020.05,20152.43,5363.00,1118.00
1548,1030.22,3031.61,3719.40,2860.00,1121.00
1557,1031.45,3043.12,679.13,2247.00,1167.00
1566,1032.67,3054.57,24.41,1961.00,1133.00
1575,1033.88,3065.97,134.06,1765.00,1051.00
1584,1035.10,3077.31,0.00,1748.00,1175.00
1593,1036.31,3088.60,0.00,1697.00,1180.00
1602,1037.52,3099.83,75.66,1632.00,1142.00
1611,1038.72,3111.00,0.00,1634.00,1182.00
1620,1039.92,3122.13,47.45,1621.00,1180.00
1629,1041.12,3133.20,204.10,1645.00,1192.00
1638,1042.32,3144.21,0.00,1581.00,1144.00
1647,1043.51,3155.17,147.83,1628.00,1148.00
1656,1044.70,3166.08,483.30,1733.00,1213.00
1665,1045.88,3176.93,389.42,1712.00,1184.00
1674,1047.07,3187.73,616.62,1668.00,1137.00
1683,1048.24,3198.48,1297.89,1773.00,1194.00
1692,1049.42,3209.17,2184.13,1822.00,1184.00
1701,1050.59,3219.81,2736.62,1811.00,1144.00
1710,1051.76,3230.40,2777.91,1858.00,1203.00
1719,1052.93,3240.94,3680.41,1828.00,1121.00
1728,1054.10,3251.42,3607.36,1858.00,1178.00
1737,1055.26,3261.86,4307.23,1887.00,1192.00
1746,1056.41,3272.24,5226.69,1944.00,1211.00
1755,1057.57,3282.57,4525.63,1896.00,1232.00
1764,1058.72,3292.85,3946.18,1826.00,1209.00
1773,1059.87,3303.07,4738.54,1809.00,1178.00
1782,1061.01,3313.25,4254.07,1771.00,1177.00
1791,1062.15,3323.38,3873.54,1704.00,1154.00
1800,1063.29,3333.45,4359.07,1710.00,1159.00
1809,1064.42,3343.48,3626.94,1691.00,1188.00
1818,1065.55,3353.45,4068.32,1663.00,1163.00
1827,1066.68,3363.38,4586.40,1672.00,1171.00
1836,1067.81,3373.25,5118.11,1619.00,1112.00
1845,1068.93,3383.08,4495.69,1592.00,1121.00
1854,1070.05,3392.85,3442.54,1657.00,1247.00
1863,1071.16,3402.58,4700.59,1588.00,1152.00
1872,1072.27,3412.26,3149.68,1545.00,1165.00
1881,1073.38,3421.89,4258.05,1475.00,1093.00
1890,1074.49,3431.47,2660.46,1473.00,1139.00
1899,1075.59,3441.00,1971.22,1459.00,1163.00
1908,1076.69,3450.49,2693.85,1501.00,1194.00
1917,1077.78,3459.93,2661.11,1427.00,1135.00
1926,1078.87,3469.32,2478.28,1463.00,1182.00
1935,1079.96,3478.66,2180.38,1402.00,1139.00
1944,1081.05,3487.95,2998.71,1444.00,1184.00
1953,1082.13,3497.20,3794.52,1444.00,1161.00
1962,1083.21,3506.40,3014.75,1364.00,1129.00
1971,1084.28,3515.56,3324.43,1446.00,1215.00
1980,1085.36,3524.67,3513.59,1372.00,1148.00
1989,1086.42,3533.73,4003.97,1336.00,1121.00
1998,1087.49,3542.74,3409.71,1334.00,1144.00
2007,1088.55,3551.71,2358.54,1279.00,1116.00
2016,1089.61,3560.64,1106.62,1264.00,1131.00
2025,1090.67,3569.52,3020.55,1296.00,1148.00
2034,1091.72,3578.35,1113.73,1188.00,1072.00
2043,1092.77,3587.14,259.91,1180.00,1087.00
2047,1093.23,3591.03,170.93,1148.00,1046.00