File: src/enlighten/plugins/Raman/MatchingLibrary/785X/isopropanol.csv
ENLIGHTEN Version,4.1.22
Measurement ID,20250220-195943-150331-WP-01977
Serial Number,WP-01977
Model,WP-785X-F13-R-ILC
Detector,S16011-1106
Label,isopropanol
Declared Match,
Declared Score,0
Scan Averaging,5
Boxcar,0
Technique,Raman
Baseline Correction Algo,AirPLS
ROI Pixel Start,47
ROI Pixel End,2047
ROI Start Line,0
ROI Stop Line,63
CCD C4,1.38617e-12
Slit Width,25
Cropped,True
Interpolated,False
Wavenumber Correction,-0.100481
Raman Intensity Corrected,True
Deconvolved,True
Region,
High Gain Mode,False
Laser Power mW,
Electrical Dark Correction,False
Battery %,
Device ID,<DeviceID USB:0x24aa:0x1000:0:1>
FW Version,10.0.0.10
FPGA Version,035-001
BLE Version,
Prefix,enlighten
Suffix,
Preset,
Auto-Raman,True
Session Count,0
Plugin Name,
Integration Time,232
Timestamp,2025-02-20 19:59:43.1503
Note,
Temperature,0
CCD C0,793.274
CCD C1,0.153259
CCD C2,1.40788e-05
CCD C3,-1.132e-08
CCD Offset,0
CCD Gain,1.9
CCD Offset Odd,0
CCD Gain Odd,1.9
Laser Wavelength,785.032
Laser Enable,False
Laser Power %,0
Laser Temperature,0
Pixel Count,2048

Pixel,Wavelength,Wavenumber,Processed,Raw,Dark
0,793.27,132.25,NA,906.60,896.80
9,794.65,154.15,NA,913.40,901.40
18,796.04,176.01,NA,918.40,907.40
27,797.42,197.83,NA,924.00,912.40
36,798.81,219.60,NA,923.20,907.00
45,800.20,241.33,NA,1555.60,906.80
54,801.59,263.02,105.62,1661.20,919.80
63,802.98,284.66,37.03,1554.00,913.80
72,804.38,306.26,0.00,1479.20,916.80
81,805.77,327.82,9.27,1484.80,904.20
90,807.17,349.32,91.33,1604.20,909.60
99,808.57,370.78,1139.76,2928.40,913.40
108,809.98,392.19,388.72,2023.20,903.40
117,811.38,413.56,702.12,2509.60,912.00
126,812.79,434.87,1520.28,3655.40,908.40
135,814.19,456.14,805.79,2624.80,896.60
144,815.60,477.36,822.07,2763.00,911.60
153,817.01,498.52,1254.78,3342.60,909.80
162,818.42,519.64,181.80,1661.80,907.60
171,819.84,540.70,79.71,1462.60,895.00
180,821.25,561.71,0.00,1319.60,899.20
189,822.67,582.67,0.00,1310.80,905.60
198,824.09,603.57,0.37,1306.40,900.40
207,825.50,624.43,0.12,1317.00,911.20
216,826.92,645.22,7.83,1317.00,900.00
225,828.34,665.97,0.00,1306.60,900.00
234,829.77,686.66,6.88,1349.40,914.00
243,831.19,707.29,0.83,1361.40,913.00
252,832.61,727.87,0.00,1381.00,914.60
261,834.04,748.39,10.32,1478.20,904.60
270,835.47,768.85,125.94,1730.80,900.60
279,836.89,789.26,798.47,2869.40,903.80
288,838.32,809.61,4804.21,12742.60,908.20
297,839.75,829.90,3481.40,10820.40,919.00
306,841.18,850.14,302.96,2218.00,909.00
315,842.61,870.31,142.73,1940.40,905.00
324,844.04,890.43,30.49,1800.80,902.20
333,845.47,910.49,387.95,2420.00,905.40
342,846.90,930.49,1952.88,5021.00,910.80
351,848.33,950.43,4570.28,9045.60,905.40
360,849.77,970.31,659.51,2907.80,902.80
369,851.20,990.12,135.46,1819.60,901.40
378,852.63,1009.88,2.74,1577.20,911.20
387,854.07,1029.58,0.00,1512.00,899.80
396,855.50,1049.21,5.06,1591.20,905.20
405,856.94,1068.79,177.44,1931.20,908.20
414,858.37,1088.30,567.72,2676.20,895.40
423,859.81,1107.75,2407.66,5680.40,914.00
432,861.25,1127.14,3420.23,7505.20,911.80
441,862.68,1146.46,1671.80,4834.00,902.20
450,864.12,1165.73,2047.88,5047.40,900.20
459,865.55,1184.93,298.41,2439.40,896.00
468,866.99,1204.06,33.69,2029.20,908.00
477,868.43,1223.14,0.00,2005.00,897.40
486,869.86,1242.15,0.00,2049.40,901.60
495,871.30,1261.10,55.10,2241.80,904.40
504,872.73,1279.98,339.90,2737.40,900.40
513,874.17,1298.80,979.04,3776.80,900.00
522,875.60,1317.55,1360.50,4415.60,906.80
531,877.04,1336.24,2181.73,5724.80,895.20
540,878.47,1354.87,1452.02,4715.60,901.60
549,879.91,1373.43,1239.06,4334.40,902.20
558,881.34,1391.93,1564.98,4850.20,891.20
567,882.78,1410.36,2539.47,6271.80,897.00
576,884.21,1428.73,2759.20,6727.80,910.40
585,885.64,1447.03,7021.07,13097.80,894.20
594,887.08,1465.26,4993.56,10246.40,910.60
603,888.51,1483.43,1459.45,4769.60,903.60
612,889.94,1501.54,594.86,3366.80,892.20
621,891.37,1519.58,280.16,2897.60,885.80
630,892.80,1537.56,115.87,2672.00,894.20
639,894.23,1555.46,1.70,2443.00,896.20
648,895.66,1573.31,0.00,2325.00,896.80
657,897.09,1591.09,0.00,2240.80,894.20
666,898.52,1608.80,26.70,2244.40,895.60
675,899.95,1626.44,79.99,2271.40,900.00
684,901.37,1644.02,93.86,2250.40,901.80
693,902.80,1661.54,159.35,2293.60,911.20
702,904.22,1678.99,168.49,2238.20,893.60
711,905.64,1696.37,210.17,2258.20,899.20
720,907.07,1713.68,382.59,2397.00,893.60
729,908.49,1730.93,131.68,2049.20,899.40
738,909.91,1748.12,78.15,1917.60,895.80
747,911.33,1765.23,20.82,1798.40,896.20
756,912.75,1782.29,4.51,1730.60,888.00
765,914.16,1799.27,15.38,1700.00,894.80
774,915.58,1816.19,20.89,1663.80,888.00
783,916.99,1833.04,45.43,1668.60,900.60
792,918.41,1849.83,59.11,1645.00,900.00
801,919.82,1866.55,56.04,1606.00,898.20
810,921.23,1883.20,58.90,1581.80,902.80
819,922.64,1899.79,71.90,1545.20,890.40
828,924.05,1916.31,66.39,1509.40,895.20
837,925.46,1932.77,83.03,1493.60,898.60
846,926.86,1949.16,70.87,1445.00,898.20
855,928.27,1965.48,59.62,1388.80,889.20
864,929.67,1981.74,29.88,1333.20,898.80
873,931.07,1997.93,10.15,1280.60,900.40
882,932.47,2014.06,5.77,1239.00,895.40
891,933.87,2030.12,10.15,1216.00,895.40
900,935.27,2046.11,13.89,1207.40,909.60
909,936.66,2062.04,19.99,1186.60,907.40
918,938.06,2077.91,37.30,1163.60,893.40
927,939.45,2093.70,9.55,1117.40,896.40
936,940.84,2109.44,23.08,1107.40,897.40
945,942.23,2125.10,4.40,1072.60,902.80
954,943.62,2140.70,0.00,1041.40,902.00
963,945.00,2156.24,13.02,1028.60,888.80
972,946.39,2171.71,1.19,1025.60,898.60
981,947.77,2187.12,6.83,1018.60,887.20
990,949.15,2202.46,8.41,1029.20,897.20
999,950.53,2217.73,21.69,1030.60,891.00
1008,951.90,2232.94,17.08,1031.00,892.60
1017,953.28,2248.09,53.79,1068.40,900.60
1026,954.65,2263.17,85.38,1087.40,894.80
1035,956.02,2278.19,91.05,1094.00,895.00
1044,957.39,2293.14,97.14,1101.00,898.20
1053,958.75,2308.03,59.70,1066.00,893.00
1062,960.12,2322.85,43.02,1053.00,896.40
1071,961.48,2337.61,35.33,1045.80,895.80
1080,962.84,2352.31,29.69,1039.80,895.20
1089,964.20,2366.94,88.80,1084.60,898.00
1098,965.56,2381.51,134.78,1116.80,901.40
1107,966.91,2396.01,77.59,1075.00,899.20
1116,968.26,2410.45,54.28,1052.40,895.00
1125,969.61,2424.83,29.60,1033.00,893.20
1134,970.96,2439.14,0.03,1016.00,897.00
1143,972.30,2453.39,5.11,1018.40,894.20
1152,973.65,2467.58,15.92,1034.40,896.80
1161,974.99,2481.70,37.82,1052.80,894.40
1170,976.33,2495.76,42.77,1070.80,900.60
1179,977.66,2509.76,62.59,1084.40,898.60
1188,979.00,2523.70,36.18,1082.80,902.20
1197,980.33,2537.57,24.99,1068.40,891.00
1206,981.66,2551.38,0.00,1075.20,909.20
1215,982.98,2565.13,0.00,1082.40,896.00
1224,984.31,2578.82,18.65,1129.60,895.20
1233,985.63,2592.44,96.31,1200.40,896.60
1242,986.95,2606.01,191.60,1284.40,906.40
1251,988.27,2619.51,254.61,1343.60,910.20
1260,989.58,2632.95,305.57,1389.20,908.60
1269,990.89,2646.33,370.23,1445.80,914.20
1278,992.20,2659.65,544.15,1516.00,905.00
1287,993.51,2672.91,117.61,1364.00,907.40
1296,994.81,2686.10,0.00,1320.60,906.20
1305,996.12,2699.24,423.31,1531.60,907.80
1314,997.41,2712.32,1563.48,2036.20,908.60
1323,998.71,2725.33,2235.95,2255.20,905.40
1332,1000.01,2738.29,716.28,1735.00,914.80
1341,1001.30,2751.18,1027.61,1813.20,925.60
1350,1002.59,2764.02,335.49,1588.80,912.60
1359,1003.87,2776.79,0.00,1457.60,908.80
1368,1005.15,2789.51,0.00,1491.20,906.80
1377,1006.43,2802.17,0.00,1584.60,908.40
1386,1007.71,2814.77,0.68,1736.80,896.00
1395,1008.99,2827.30,188.40,1936.60,901.40
1404,1010.26,2839.78,1730.11,2385.60,909.80
1413,1011.53,2852.21,5215.35,3386.40,905.80
1422,1012.80,2864.57,13403.10,5674.60,925.00
1431,1014.06,2876.87,28641.52,9331.00,902.00
1440,1015.32,2889.12,26620.21,8782.00,913.60
1449,1016.58,2901.31,22040.77,7494.20,911.20
1458,1017.83,2913.44,32214.98,9494.60,905.00
1467,1019.09,2925.51,33847.52,9684.80,912.00
1476,1020.33,2937.53,31914.10,8741.00,921.40
1485,1021.58,2949.49,17591.82,5701.60,909.60
1494,1022.82,2961.39,15359.50,5061.60,905.80
1503,1024.07,2973.23,28651.02,7136.20,919.20
1512,1025.30,2985.02,16870.32,4947.20,901.80
1521,1026.54,2996.75,6240.37,2788.20,911.60
1530,1027.77,3008.43,2562.63,2004.20,909.60
1539,1029.00,3020.05,572.42,1609.80,901.00
1548,1030.22,3031.61,1.74,1397.80,905.80
1557,1031.45,3043.12,0.00,1262.60,911.80
1566,1032.67,3054.57,0.00,1178.80,901.40
1575,1033.88,3065.97,0.00,1116.60,889.40
1584,1035.10,3077.31,21.53,1102.20,909.40
1593,1036.31,3088.60,0.00,1074.00,907.60
1602,1037.52,3099.83,6.57,1059.60,906.20
1611,1038.72,3111.00,26.47,1058.20,912.60
1620,1039.92,3122.13,0.00,1046.40,911.80
1629,1041.12,3133.20,49.25,1056.60,916.60
1638,1042.32,3144.21,212.31,1057.60,906.80
1647,1043.51,3155.17,355.09,1071.80,909.80
1656,1044.70,3166.08,526.58,1093.00,920.00
1665,1045.88,3176.93,821.12,1110.80,914.40
1674,1047.07,3187.73,998.38,1102.40,900.00
1683,1048.24,3198.48,1188.78,1134.40,921.20
1692,1049.42,3209.17,1381.68,1136.80,913.20
1701,1050.59,3219.81,1547.67,1137.00,907.80
1710,1051.76,3230.40,1813.95,1156.40,917.60
1719,1052.93,3240.94,2020.00,1145.60,901.20
1728,1054.10,3251.42,1914.20,1142.80,916.40
1737,1055.26,3261.86,2252.50,1153.20,912.40
1746,1056.41,3272.24,2208.61,1149.80,921.60
1755,1057.57,3282.57,2202.66,1143.40,924.80
1764,1058.72,3292.85,2205.37,1126.00,916.80
1773,1059.87,3303.07,2328.39,1117.20,912.00
1782,1061.01,3313.25,2468.22,1114.60,912.80
1791,1062.15,3323.38,2324.10,1100.00,909.40
1800,1063.29,3333.45,2342.75,1086.80,905.80
1809,1064.42,3343.48,2432.06,1091.00,912.20
1818,1065.55,3353.45,2475.65,1076.40,906.20
1827,1066.68,3363.38,2352.24,1073.60,913.00
1836,1067.81,3373.25,2397.75,1050.20,897.00
1845,1068.93,3383.08,2455.82,1047.00,899.00
1854,1070.05,3392.85,2139.17,1059.00,927.20
1863,1071.16,3402.58,2170.72,1034.20,909.20
1872,1072.27,3412.26,2066.02,1027.20,909.20
1881,1073.38,3421.89,1970.93,1004.40,895.60
1890,1074.49,3431.47,1970.87,1006.00,902.60
1899,1075.59,3441.00,2049.09,1002.80,903.40
1908,1076.69,3450.49,1546.42,1001.80,918.00
1917,1077.78,3459.93,1806.45,983.60,898.80
1926,1078.87,3469.32,1733.49,993.40,913.80
1935,1079.96,3478.66,1406.41,972.00,903.80
1944,1081.05,3487.95,1295.54,977.80,914.20
1953,1082.13,3497.20,1130.92,969.20,913.80
1962,1083.21,3506.40,747.50,950.40,906.20
1971,1084.28,3515.56,652.78,961.40,919.80
1980,1085.36,3524.67,854.10,952.00,910.00
1989,1086.42,3533.73,692.90,938.60,900.80
1998,1087.49,3542.74,743.43,945.00,907.00
2007,1088.55,3551.71,891.42,934.00,897.20
2016,1089.61,3560.64,228.83,926.40,901.20
2025,1090.67,3569.52,253.92,928.40,903.80
2034,1091.72,3578.35,123.33,908.40,888.80
2043,1092.77,3587.14,266.28,910.20,890.40
2047,1093.23,3591.03,45.21,903.40,884.80