File: src/enlighten/plugins/Raman/MatchingLibrary/785X/ketoprofen.csv
ENLIGHTEN Version,4.1.22
Measurement ID,20250220-203823-906037-WP-01977
Serial Number,WP-01977
Model,WP-785X-F13-R-ILC
Detector,S16011-1106
Label,ketoprofen
Declared Match,
Declared Score,0
Scan Averaging,3
Boxcar,0
Technique,Raman
Baseline Correction Algo,AirPLS
ROI Pixel Start,47
ROI Pixel End,2047
ROI Start Line,0
ROI Stop Line,63
CCD C4,1.38617e-12
Slit Width,25
Cropped,True
Interpolated,False
Wavenumber Correction,-0.100481
Raman Intensity Corrected,True
Deconvolved,True
Region,
High Gain Mode,False
Laser Power mW,
Electrical Dark Correction,False
Battery %,
Device ID,<DeviceID USB:0x24aa:0x1000:0:1>
FW Version,10.0.0.10
FPGA Version,035-001
BLE Version,
Prefix,enlighten
Suffix,
Preset,
Auto-Raman,True
Session Count,0
Plugin Name,
Integration Time,379
Timestamp,2025-02-20 20:38:23.906
Note,
Temperature,0
CCD C0,793.274
CCD C1,0.153259
CCD C2,1.40788e-05
CCD C3,-1.132e-08
CCD Offset,0
CCD Gain,1.9
CCD Offset Odd,0
CCD Gain Odd,1.9
Laser Wavelength,785.032
Laser Enable,False
Laser Power %,0
Laser Temperature,0
Pixel Count,2048

Pixel,Wavelength,Wavenumber,Processed,Raw,Dark
0,793.27,132.25,NA,970.33,927.33
9,794.65,154.15,NA,975.67,936.67
18,796.04,176.01,NA,998.67,949.67
27,797.42,197.83,NA,1026.00,956.33
36,798.81,219.60,NA,1048.00,943.00
45,800.20,241.33,NA,5161.00,942.67
54,801.59,263.02,1161.78,6246.00,960.67
63,802.98,284.66,1126.78,5749.67,958.67
72,804.38,306.26,918.26,5398.67,960.67
81,805.77,327.82,18.40,4060.67,945.67
90,807.17,349.32,0.00,3752.00,947.00
99,808.57,370.78,632.19,4608.67,950.33
108,809.98,392.19,236.00,4176.00,939.67
117,811.38,413.56,690.95,4965.00,952.67
126,812.79,434.87,803.00,4913.00,952.00
135,814.19,456.14,1797.82,6252.33,929.67
144,815.60,477.36,421.54,4256.33,954.33
153,817.01,498.52,186.13,3870.33,952.67
162,818.42,519.64,884.07,4707.67,957.00
171,819.84,540.70,0.00,3418.67,931.67
180,821.25,561.71,84.43,3564.33,927.00
189,822.67,582.67,1115.43,5255.67,939.00
198,824.09,603.57,1583.49,5958.00,931.67
207,825.50,624.43,1306.64,6295.33,957.67
216,826.92,645.22,1153.38,5586.00,944.00
225,828.34,665.97,826.66,4768.00,930.00
234,829.77,686.66,975.51,5213.00,982.33
243,831.19,707.29,7908.18,14667.00,964.67
252,832.61,727.87,211.91,3776.00,962.00
261,834.04,748.39,0.00,3190.00,941.67
270,835.47,768.85,445.58,4012.00,934.00
279,836.89,789.26,2043.89,5968.67,950.00
288,838.32,809.61,1203.36,4947.33,944.67
297,839.75,829.90,1706.14,5474.33,970.67
306,841.18,850.14,215.07,3642.67,949.00
315,842.61,870.31,1300.38,5446.67,946.33
324,844.04,890.43,0.00,3122.00,938.00
333,845.47,910.49,128.57,3553.33,935.00
342,846.90,930.49,383.33,3823.67,947.00
351,848.33,950.43,19.75,3474.33,947.67
360,849.77,970.31,3392.75,8377.67,945.00
369,851.20,990.12,11656.77,22955.00,955.00
378,852.63,1009.88,7680.71,20568.00,969.67
387,854.07,1029.58,2710.07,7605.33,938.33
396,855.50,1049.21,0.00,3573.67,940.33
405,856.94,1068.79,340.57,4453.33,945.67
414,858.37,1088.30,476.00,4929.67,922.00
423,859.81,1107.75,63.02,4062.67,958.33
432,861.25,1127.14,737.11,5762.67,952.67
441,862.68,1146.46,428.41,5647.33,934.67
450,864.12,1165.73,247.61,5551.67,939.00
459,865.55,1184.93,1156.94,7570.00,918.33
468,866.99,1204.06,1833.48,9048.67,939.33
477,868.43,1223.14,1118.86,6286.00,935.67
486,869.86,1242.15,0.00,4746.33,937.33
495,871.30,1261.10,677.91,5971.33,932.33
504,872.73,1279.98,5626.73,12678.33,938.67
513,874.17,1298.80,793.73,6491.67,937.33
522,875.60,1317.55,1453.30,7437.67,941.67
531,877.04,1336.24,1069.00,6911.33,920.33
540,878.47,1354.87,464.02,6115.00,935.67
549,879.91,1373.43,458.27,6186.33,936.67
558,881.34,1391.93,334.82,6057.33,919.67
567,882.78,1410.36,418.83,6279.67,928.67
576,884.21,1428.73,1676.91,8167.67,946.00
585,885.64,1447.03,2143.97,9167.67,931.33
594,887.08,1465.26,1918.90,9090.33,945.67
603,888.51,1483.43,354.39,6422.00,937.33
612,889.94,1501.54,63.40,6067.67,924.67
621,891.37,1519.58,0.00,5977.00,909.00
630,892.80,1537.56,19.38,6071.67,936.33
639,894.23,1555.46,37.96,6124.00,931.67
648,895.66,1573.31,2643.98,9862.00,931.67
657,897.09,1591.09,7680.58,19816.67,926.67
666,898.52,1608.80,4584.38,15102.33,925.33
675,899.95,1626.44,1338.67,7422.00,927.33
684,901.37,1644.02,3914.79,12495.00,936.00
693,902.80,1661.54,7822.72,19346.33,954.33
702,904.22,1678.99,611.23,5972.67,919.33
711,905.64,1696.37,330.50,5411.33,931.67
720,907.07,1713.68,106.16,4989.33,924.00
729,908.49,1730.93,0.00,4596.67,933.67
738,909.91,1748.12,23.48,4363.33,926.00
747,911.33,1765.23,0.00,4090.00,931.67
756,912.75,1782.29,13.19,3975.67,920.33
765,914.16,1799.27,58.37,3897.33,929.00
774,915.58,1816.19,37.72,3768.67,917.33
783,916.99,1833.04,107.06,3740.00,934.33
792,918.41,1849.83,98.16,3620.33,943.00
801,919.82,1866.55,149.09,3554.67,932.67
810,921.23,1883.20,184.39,3471.33,937.33
819,922.64,1899.79,176.60,3331.33,921.00
828,924.05,1916.31,136.62,3189.00,929.33
837,925.46,1932.77,157.57,3099.00,918.67
846,926.86,1949.16,138.11,2985.67,937.67
855,928.27,1965.48,112.29,2830.67,917.00
864,929.67,1981.74,107.27,2736.33,933.67
873,931.07,1997.93,57.44,2584.33,940.33
882,932.47,2014.06,17.53,2435.67,927.33
891,933.87,2030.12,41.74,2359.33,929.33
900,935.27,2046.11,2.99,2262.00,952.67
909,936.66,2062.04,13.79,2179.33,945.00
918,938.06,2077.91,0.00,2062.67,925.33
927,939.45,2093.70,8.38,2017.67,932.67
936,940.84,2109.44,15.44,1953.67,926.00
945,942.23,2125.10,0.21,1898.00,937.67
954,943.62,2140.70,0.00,1851.67,941.67
963,945.00,2156.24,0.81,1792.33,922.00
972,946.39,2171.71,0.00,1739.67,931.00
981,947.77,2187.12,21.24,1734.67,920.33
990,949.15,2202.46,5.80,1717.00,936.67
999,950.53,2217.73,8.37,1693.00,925.33
1008,951.90,2232.94,14.72,1675.67,922.67
1017,953.28,2248.09,34.57,1703.00,951.00
1026,954.65,2263.17,18.80,1650.67,927.33
1035,956.02,2278.19,19.80,1646.00,936.33
1044,957.39,2293.14,1.15,1614.33,936.00
1053,958.75,2308.03,27.64,1612.00,924.00
1062,960.12,2322.85,25.46,1599.33,926.67
1071,961.48,2337.61,0.00,1557.00,930.67
1080,962.84,2352.31,8.09,1566.67,935.33
1089,964.20,2366.94,7.20,1562.33,936.67
1098,965.56,2381.51,6.60,1562.67,938.33
1107,966.91,2396.01,52.34,1584.67,936.33
1116,968.26,2410.45,21.69,1554.33,932.67
1125,969.61,2424.83,19.26,1535.00,921.33
1134,970.96,2439.14,107.74,1584.00,927.33
1143,972.30,2453.39,110.07,1581.67,928.00
1152,973.65,2467.58,149.62,1592.33,932.33
1161,974.99,2481.70,120.98,1567.67,931.67
1170,976.33,2495.76,124.55,1570.33,940.00
1179,977.66,2509.76,192.62,1588.33,934.33
1188,979.00,2523.70,221.46,1601.00,941.00
1197,980.33,2537.57,239.07,1576.00,919.67
1206,981.66,2551.38,218.39,1576.33,941.67
1215,982.98,2565.13,298.69,1589.67,931.67
1224,984.31,2578.82,422.87,1647.33,933.00
1233,985.63,2592.44,536.11,1676.67,926.00
1242,986.95,2606.01,382.67,1615.67,951.67
1251,988.27,2619.51,480.11,1642.00,950.67
1260,989.58,2632.95,374.12,1576.00,949.00
1269,990.89,2646.33,211.97,1498.00,961.33
1278,992.20,2659.65,28.98,1389.67,947.00
1287,993.51,2672.91,38.77,1370.33,938.33
1296,994.81,2686.10,27.30,1360.00,941.67
1305,996.12,2699.24,0.00,1333.33,952.67
1314,997.41,2712.32,55.55,1371.00,956.00
1323,998.71,2725.33,452.53,1506.00,941.67
1332,1000.01,2738.29,227.02,1445.67,957.67
1341,1001.30,2751.18,133.43,1400.67,977.67
1350,1002.59,2764.02,91.70,1358.33,957.00
1359,1003.87,2776.79,69.10,1335.67,947.00
1368,1005.15,2789.51,53.59,1329.67,955.00
1377,1006.43,2802.17,14.28,1306.33,947.67
1386,1007.71,2814.77,30.68,1306.33,936.33
1395,1008.99,2827.30,4.04,1314.67,941.67
1404,1010.26,2839.78,0.00,1338.67,950.67
1413,1011.53,2852.21,7.28,1368.33,937.00
1422,1012.80,2864.57,405.89,1557.33,963.67
1431,1014.06,2876.87,2693.11,2063.33,928.00
1440,1015.32,2889.12,1417.46,1843.33,953.00
1449,1016.58,2901.31,1095.28,1746.67,942.33
1458,1017.83,2913.44,1392.97,1802.33,932.00
1467,1019.09,2925.51,1685.27,1937.33,945.00
1476,1020.33,2937.53,8263.63,3248.00,958.00
1485,1021.58,2949.49,5433.03,2818.33,955.00
1494,1022.82,2961.39,2345.75,2094.00,937.00
1503,1024.07,2973.23,2097.81,2031.00,967.33
1512,1025.30,2985.02,2765.99,2094.00,931.67
1521,1026.54,2996.75,2530.94,1966.00,950.33
1530,1027.77,3008.43,80.84,1598.00,950.00
1539,1029.00,3020.05,3.32,1532.33,930.67
1548,1030.22,3031.61,1102.23,1681.67,938.00
1557,1031.45,3043.12,2699.98,1999.33,944.00
1566,1032.67,3054.57,19081.93,4159.33,940.33
1575,1033.88,3065.97,15696.76,3821.67,920.33
1584,1035.10,3077.31,9382.56,2779.33,951.33
1593,1036.31,3088.60,5612.08,2154.33,949.33
1602,1037.52,3099.83,3355.82,1786.33,943.67
1611,1038.72,3111.00,564.02,1391.67,956.67
1620,1039.92,3122.13,3.86,1276.67,954.67
1629,1041.12,3133.20,0.00,1245.67,964.00
1638,1042.32,3144.21,137.59,1229.33,939.00
1647,1043.51,3155.17,175.06,1242.33,954.33
1656,1044.70,3166.08,125.05,1248.33,974.00
1665,1045.88,3176.93,197.01,1242.67,962.67
1674,1047.07,3187.73,597.90,1240.33,938.00
1683,1048.24,3198.48,756.77,1272.67,968.33
1692,1049.42,3209.17,811.96,1252.00,956.33
1701,1050.59,3219.81,1006.21,1234.33,939.67
1710,1051.76,3230.40,1084.60,1257.00,966.00
1719,1052.93,3240.94,1072.59,1222.67,945.00
1728,1054.10,3251.42,1489.16,1248.33,952.33
1737,1055.26,3261.86,1558.77,1250.33,962.67
1746,1056.41,3272.24,1525.68,1243.67,969.67
1755,1057.57,3282.57,1512.68,1241.00,980.33
1764,1058.72,3292.85,1455.49,1204.33,957.00
1773,1059.87,3303.07,1638.95,1197.33,951.33
1782,1061.01,3313.25,1374.13,1177.00,954.00
1791,1062.15,3323.38,1357.35,1158.00,949.33
1800,1063.29,3333.45,1471.73,1153.33,948.67
1809,1064.42,3343.48,1374.87,1149.33,958.00
1818,1065.55,3353.45,1439.93,1128.33,944.33
1827,1066.68,3363.38,1325.56,1123.33,952.33
1836,1067.81,3373.25,1195.55,1094.67,935.33
1845,1068.93,3383.08,1257.72,1085.33,930.67
1854,1070.05,3392.85,1420.10,1123.00,971.00
1863,1071.16,3402.58,1298.28,1087.33,948.33
1872,1072.27,3412.26,1161.20,1081.33,951.33
1881,1073.38,3421.89,1177.85,1052.00,928.33
1890,1074.49,3431.47,1039.00,1056.33,938.33
1899,1075.59,3441.00,965.71,1052.33,945.00
1908,1076.69,3450.49,1314.48,1070.67,959.33
1917,1077.78,3459.93,1393.85,1042.33,934.00
1926,1078.87,3469.32,1108.91,1053.00,955.00
1935,1079.96,3478.66,1163.95,1029.33,938.00
1944,1081.05,3487.95,28.29,1025.00,963.33
1953,1082.13,3497.20,830.79,1026.00,950.33
1962,1083.21,3506.40,765.03,1012.00,941.33
1971,1084.28,3515.56,406.36,1036.33,974.33
1980,1085.36,3524.67,481.91,1009.00,947.00
1989,1086.42,3533.73,709.88,997.67,938.33
1998,1087.49,3542.74,120.18,998.67,952.67
2007,1088.55,3551.71,324.29,985.00,937.33
2016,1089.61,3560.64,975.53,987.33,932.33
2025,1090.67,3569.52,462.52,986.00,940.67
2034,1091.72,3578.35,954.37,969.00,919.00
2043,1092.77,3587.14,588.36,960.00,916.33
2047,1093.23,3591.03,279.13,951.00,907.67