File: src/enlighten/plugins/Raman/MatchingLibrary/785X/sodium hydrogen carbonate.csv
ENLIGHTEN Version,4.1.22
Measurement ID,20250220-204159-163183-WP-01977
Serial Number,WP-01977
Model,WP-785X-F13-R-ILC
Detector,S16011-1106
Label,sodium hydrogen carbonate
Declared Match,
Declared Score,0
Scan Averaging,3
Boxcar,0
Technique,Raman
Baseline Correction Algo,AirPLS
ROI Pixel Start,47
ROI Pixel End,2047
ROI Start Line,0
ROI Stop Line,63
CCD C4,1.38617e-12
Slit Width,25
Cropped,True
Interpolated,False
Wavenumber Correction,-0.100481
Raman Intensity Corrected,True
Deconvolved,True
Region,
High Gain Mode,False
Laser Power mW,
Electrical Dark Correction,False
Battery %,
Device ID,<DeviceID USB:0x24aa:0x1000:0:1>
FW Version,10.0.0.10
FPGA Version,035-001
BLE Version,
Prefix,enlighten
Suffix,
Preset,
Auto-Raman,True
Session Count,0
Plugin Name,
Integration Time,464
Timestamp,2025-02-20 20:41:59.1632
Note,
Temperature,0
CCD C0,793.274
CCD C1,0.153259
CCD C2,1.40788e-05
CCD C3,-1.132e-08
CCD Offset,0
CCD Gain,1.9
CCD Offset Odd,0
CCD Gain Odd,1.9
Laser Wavelength,785.032
Laser Enable,False
Laser Power %,0
Laser Temperature,0
Pixel Count,2048

Pixel,Wavelength,Wavenumber,Processed,Raw,Dark
0,793.27,132.25,NA,970.33,943.33
9,794.65,154.15,NA,975.33,954.33
18,796.04,176.01,NA,998.67,978.00
27,797.42,197.83,NA,1006.33,983.00
36,798.81,219.60,NA,1006.33,971.00
45,800.20,241.33,NA,2822.00,967.67
54,801.59,263.02,0.00,2162.33,991.00
63,802.98,284.66,0.00,2049.33,987.67
72,804.38,306.26,8.06,2071.33,980.33
81,805.77,327.82,163.07,2232.00,970.33
90,807.17,349.32,71.73,2098.33,976.00
99,808.57,370.78,84.51,2113.67,985.00
108,809.98,392.19,133.92,2133.33,963.00
117,811.38,413.56,176.24,2183.33,979.00
126,812.79,434.87,215.42,2208.00,973.67
135,814.19,456.14,221.37,2180.00,959.33
144,815.60,477.36,230.30,2193.33,983.00
153,817.01,498.52,190.02,2083.00,975.67
162,818.42,519.64,36.84,1821.67,979.67
171,819.84,540.70,7.45,1713.33,948.33
180,821.25,561.71,0.47,1656.33,951.00
189,822.67,582.67,0.00,1645.00,964.67
198,824.09,603.57,11.39,1658.00,952.00
207,825.50,624.43,12.77,1697.33,976.00
216,826.92,645.22,719.78,2641.33,964.00
225,828.34,665.97,506.08,2622.67,949.00
234,829.77,686.66,6647.89,10870.67,1020.67
243,831.19,707.29,194.07,2157.33,989.67
252,832.61,727.87,1.86,1630.33,978.33
261,834.04,748.39,0.00,1566.00,956.67
270,835.47,768.85,0.86,1563.33,952.67
279,836.89,789.26,35.99,1626.67,962.67
288,838.32,809.61,50.90,1647.00,959.33
297,839.75,829.90,221.07,1939.67,983.67
306,841.18,850.14,3.74,1593.00,974.00
315,842.61,870.31,2.79,1574.00,967.67
324,844.04,890.43,11.99,1586.67,948.67
333,845.47,910.49,0.00,1613.33,965.67
342,846.90,930.49,4.48,1660.67,973.00
351,848.33,950.43,0.00,1675.00,963.33
360,849.77,970.31,0.00,1728.67,958.00
369,851.20,990.12,283.48,2351.33,964.00
378,852.63,1009.88,5.57,2163.67,986.00
387,854.07,1029.58,509.67,3332.00,957.00
396,855.50,1049.21,21231.10,34534.67,972.00
405,856.94,1068.79,251.08,2681.67,970.33
414,858.37,1088.30,0.00,2179.00,951.33
423,859.81,1107.75,0.37,2247.33,976.00
432,861.25,1127.14,1.16,2310.00,983.00
441,862.68,1146.46,0.00,2310.00,954.67
450,864.12,1165.73,0.00,2394.67,964.00
459,865.55,1184.93,0.00,2573.67,941.67
468,866.99,1204.06,0.00,2949.67,960.00
477,868.43,1223.14,253.71,3733.00,962.00
486,869.86,1242.15,1469.34,6004.00,964.00
495,871.30,1261.10,5847.78,13283.67,962.00
504,872.73,1279.98,3199.15,9505.00,968.67
513,874.17,1298.80,381.29,4822.00,960.00
522,875.60,1317.55,42.48,4379.67,966.67
531,877.04,1336.24,0.00,4205.67,945.00
540,878.47,1354.87,59.88,4265.67,957.67
549,879.91,1373.43,16.91,4165.33,961.33
558,881.34,1391.93,0.00,4032.00,931.67
567,882.78,1410.36,0.00,4045.33,945.67
576,884.21,1428.73,446.81,5033.00,967.67
585,885.64,1447.03,362.19,4797.67,948.67
594,887.08,1465.26,508.35,4860.33,970.00
603,888.51,1483.43,81.43,4132.00,969.00
612,889.94,1501.54,52.40,4047.00,945.67
621,891.37,1519.58,71.22,4012.33,931.67
630,892.80,1537.56,31.03,3929.00,952.00
639,894.23,1555.46,0.00,3826.00,948.00
648,895.66,1573.31,13.52,3801.33,950.00
657,897.09,1591.09,25.20,3762.33,949.00
666,898.52,1608.80,194.42,3973.00,954.00
675,899.95,1626.44,709.26,4534.00,950.67
684,901.37,1644.02,124.90,3690.67,955.00
693,902.80,1661.54,172.70,3712.67,977.67
702,904.22,1678.99,346.72,3828.67,947.00
711,905.64,1696.37,277.87,3653.33,953.67
720,907.07,1713.68,82.61,3325.00,950.67
729,908.49,1730.93,37.10,3189.67,953.67
738,909.91,1748.12,0.08,3058.33,957.33
747,911.33,1765.23,0.00,2935.00,949.33
756,912.75,1782.29,0.00,2894.00,938.33
765,914.16,1799.27,27.92,2899.33,950.67
774,915.58,1816.19,81.52,2908.67,940.00
783,916.99,1833.04,158.78,2962.67,961.67
792,918.41,1849.83,162.43,2900.67,958.00
801,919.82,1866.55,153.83,2820.00,947.67
810,921.23,1883.20,242.77,2877.67,963.33
819,922.64,1899.79,379.00,2966.67,935.33
828,924.05,1916.31,564.30,3111.33,952.00
837,925.46,1932.77,369.32,2834.00,952.00
846,926.86,1949.16,132.79,2496.67,954.33
855,928.27,1965.48,25.13,2304.33,937.67
864,929.67,1981.74,0.00,2213.67,954.00
873,931.07,1997.93,0.00,2148.00,963.33
882,932.47,2014.06,14.34,2079.67,943.00
891,933.87,2030.12,13.34,2008.67,951.33
900,935.27,2046.11,20.91,1972.67,976.00
909,936.66,2062.04,30.24,1903.00,964.33
918,938.06,2077.91,2.39,1806.33,951.33
927,939.45,2093.70,2.45,1752.67,950.33
936,940.84,2109.44,11.80,1706.67,946.33
945,942.23,2125.10,12.02,1681.67,960.67
954,943.62,2140.70,0.00,1635.00,962.67
963,945.00,2156.24,10.29,1612.67,942.67
972,946.39,2171.71,26.64,1616.33,948.67
981,947.77,2187.12,0.00,1579.00,933.33
990,949.15,2202.46,0.00,1611.33,953.33
999,950.53,2217.73,0.00,1615.67,945.67
1008,951.90,2232.94,14.26,1641.33,940.67
1017,953.28,2248.09,35.58,1693.67,964.00
1026,954.65,2263.17,33.19,1687.33,947.67
1035,956.02,2278.19,19.54,1691.00,956.33
1044,957.39,2293.14,5.42,1687.67,956.67
1053,958.75,2308.03,0.00,1667.00,945.67
1062,960.12,2322.85,1.37,1700.00,948.33
1071,961.48,2337.61,5.83,1727.00,955.00
1080,962.84,2352.31,51.84,1765.67,951.33
1089,964.20,2366.94,90.03,1797.67,953.67
1098,965.56,2381.51,180.06,1851.33,948.00
1107,966.91,2396.01,280.45,1916.00,955.00
1116,968.26,2410.45,307.90,1930.33,952.67
1125,969.61,2424.83,361.34,1957.33,947.67
1134,970.96,2439.14,475.69,2015.00,954.33
1143,972.30,2453.39,476.34,1990.33,941.00
1152,973.65,2467.58,443.56,1967.33,951.33
1161,974.99,2481.70,478.86,1964.67,950.00
1170,976.33,2495.76,411.29,1916.67,955.00
1179,977.66,2509.76,368.34,1877.67,952.00
1188,979.00,2523.70,375.08,1882.67,968.33
1197,980.33,2537.57,403.17,1860.00,947.67
1206,981.66,2551.38,317.68,1824.00,971.00
1215,982.98,2565.13,212.11,1734.33,949.33
1224,984.31,2578.82,137.61,1681.33,949.67
1233,985.63,2592.44,70.77,1636.67,949.00
1242,986.95,2606.01,100.52,1643.00,969.67
1251,988.27,2619.51,101.32,1618.33,974.33
1260,989.58,2632.95,132.54,1591.33,965.33
1269,990.89,2646.33,20.52,1553.67,998.67
1278,992.20,2659.65,75.14,1511.33,966.00
1287,993.51,2672.91,32.31,1475.00,974.00
1296,994.81,2686.10,35.45,1442.33,969.00
1305,996.12,2699.24,15.78,1412.67,978.67
1314,997.41,2712.32,28.30,1391.67,976.67
1323,998.71,2725.33,0.00,1342.00,956.33
1332,1000.01,2738.29,0.00,1356.00,987.00
1341,1001.30,2751.18,25.96,1375.67,1008.00
1350,1002.59,2764.02,41.75,1339.33,983.00
1359,1003.87,2776.79,8.34,1302.00,968.33
1368,1005.15,2789.51,0.00,1289.00,969.67
1377,1006.43,2802.17,48.60,1293.00,967.67
1386,1007.71,2814.77,37.64,1264.67,946.33
1395,1008.99,2827.30,51.36,1275.33,959.00
1404,1010.26,2839.78,145.48,1297.33,969.67
1413,1011.53,2852.21,86.41,1268.00,961.00
1422,1012.80,2864.57,118.71,1291.00,986.00
1431,1014.06,2876.87,149.54,1256.67,952.67
1440,1015.32,2889.12,149.37,1274.00,980.33
1449,1016.58,2901.31,250.15,1271.67,967.33
1458,1017.83,2913.44,228.21,1249.33,956.33
1467,1019.09,2925.51,289.45,1267.00,973.00
1476,1020.33,2937.53,168.16,1245.33,990.33
1485,1021.58,2949.49,179.57,1223.33,976.00
1494,1022.82,2961.39,138.31,1186.67,958.67
1503,1024.07,2973.23,107.67,1208.33,996.67
1512,1025.30,2985.02,9.70,1143.33,953.00
1521,1026.54,2996.75,13.87,1153.00,972.00
1530,1027.77,3008.43,20.85,1154.33,978.67
1539,1029.00,3020.05,0.00,1123.00,956.33
1548,1030.22,3031.61,81.85,1140.33,958.00
1557,1031.45,3043.12,78.36,1149.33,973.33
1566,1032.67,3054.57,68.29,1132.33,961.33
1575,1033.88,3065.97,77.22,1104.33,936.00
1584,1035.10,3077.31,24.87,1138.67,979.33
1593,1036.31,3088.60,6.53,1142.33,988.67
1602,1037.52,3099.83,21.14,1126.00,973.33
1611,1038.72,3111.00,0.00,1135.33,989.67
1620,1039.92,3122.13,0.00,1125.67,984.67
1629,1041.12,3133.20,127.90,1149.33,986.67
1638,1042.32,3144.21,0.48,1115.67,968.33
1647,1043.51,3155.17,110.40,1137.33,977.00
1656,1044.70,3166.08,74.57,1158.00,995.67
1665,1045.88,3176.93,104.80,1163.00,990.00
1674,1047.07,3187.73,136.85,1139.33,962.67
1683,1048.24,3198.48,167.92,1174.00,989.33
1692,1049.42,3209.17,389.25,1186.00,989.00
1701,1050.59,3219.81,375.35,1172.67,978.33
1710,1051.76,3230.40,816.29,1206.00,985.33
1719,1052.93,3240.94,672.93,1173.67,966.67
1728,1054.10,3251.42,860.28,1202.00,984.33
1737,1055.26,3261.86,1071.42,1212.00,987.67
1746,1056.41,3272.24,704.30,1205.33,1010.00
1755,1057.57,3282.57,928.94,1206.33,1003.00
1764,1058.72,3292.85,1015.41,1183.00,982.33
1773,1059.87,3303.07,895.40,1166.33,977.00
1782,1061.01,3313.25,670.30,1153.33,981.00
1791,1062.15,3323.38,805.13,1145.00,971.00
1800,1063.29,3333.45,495.69,1126.00,971.67
1809,1064.42,3343.48,776.88,1138.33,977.67
1818,1065.55,3353.45,504.85,1115.00,972.00
1827,1066.68,3363.38,609.66,1121.67,976.33
1836,1067.81,3373.25,458.49,1093.67,960.33
1845,1068.93,3383.08,402.27,1078.00,953.67
1854,1070.05,3392.85,681.16,1123.00,1000.33
1863,1071.16,3402.58,81.84,1076.67,975.33
1872,1072.27,3412.26,740.92,1085.00,970.33
1881,1073.38,3421.89,217.51,1040.00,945.00
1890,1074.49,3431.47,477.18,1057.67,964.33
1899,1075.59,3441.00,146.63,1058.00,975.67
1908,1076.69,3450.49,546.42,1072.00,985.67
1917,1077.78,3459.93,818.76,1042.00,955.00
1926,1078.87,3469.32,338.67,1054.33,984.00
1935,1079.96,3478.66,439.06,1032.00,966.00
1944,1081.05,3487.95,173.16,1040.67,984.67
1953,1082.13,3497.20,1204.43,1050.33,974.00
1962,1083.21,3506.40,683.75,1022.67,964.00
1971,1084.28,3515.56,562.90,1048.67,996.00
1980,1085.36,3524.67,117.15,1016.33,975.33
1989,1086.42,3533.73,594.63,1008.33,960.00
1998,1087.49,3542.74,501.70,1015.67,971.67
2007,1088.55,3551.71,809.67,1001.67,956.33
2016,1089.61,3560.64,627.13,994.00,953.33
2025,1090.67,3569.52,647.45,1000.67,963.33
2034,1091.72,3578.35,387.00,968.33,932.00
2043,1092.77,3587.14,257.62,966.67,937.33
2047,1093.23,3591.03,56.29,958.33,926.67