File: src/enlighten/plugins/Raman/MatchingLibrary/785X/toluene.csv
ENLIGHTEN Version,4.1.22
Measurement ID,20250220-195313-501946-WP-01977
Serial Number,WP-01977
Model,WP-785X-F13-R-ILC
Detector,S16011-1106
Label,toluene
Declared Match,
Declared Score,0
Scan Averaging,10
Boxcar,0
Technique,Raman
Baseline Correction Algo,AirPLS
ROI Pixel Start,47
ROI Pixel End,2047
ROI Start Line,0
ROI Stop Line,63
CCD C4,1.38617e-12
Slit Width,25
Cropped,True
Interpolated,False
Wavenumber Correction,-0.100481
Raman Intensity Corrected,True
Deconvolved,True
Region,
High Gain Mode,False
Laser Power mW,
Electrical Dark Correction,False
Battery %,
Device ID,<DeviceID USB:0x24aa:0x1000:0:1>
FW Version,10.0.0.10
FPGA Version,035-001
BLE Version,
Prefix,enlighten
Suffix,
Preset,
Auto-Raman,True
Session Count,0
Plugin Name,
Integration Time,80
Timestamp,2025-02-20 19:53:13.5019
Note,
Temperature,0
CCD C0,793.274
CCD C1,0.153259
CCD C2,1.40788e-05
CCD C3,-1.132e-08
CCD Offset,0
CCD Gain,1.9
CCD Offset Odd,0
CCD Gain Odd,1.9
Laser Wavelength,785.032
Laser Enable,False
Laser Power %,0
Laser Temperature,0
Pixel Count,2048

Pixel,Wavelength,Wavenumber,Processed,Raw,Dark
0,793.27,132.25,NA,868.60,861.70
9,794.65,154.15,NA,869.00,860.60
18,796.04,176.01,NA,871.70,867.20
27,797.42,197.83,NA,876.80,867.80
36,798.81,219.60,NA,882.40,862.10
45,800.20,241.33,NA,2040.30,865.70
54,801.59,263.02,17.88,1458.20,869.00
63,802.98,284.66,0.00,1258.60,864.60
72,804.38,306.26,0.00,1198.00,865.80
81,805.77,327.82,45.59,1259.20,863.30
90,807.17,349.32,589.64,1914.60,863.40
99,808.57,370.78,10.20,1177.70,864.30
108,809.98,392.19,5.13,1162.10,863.50
117,811.38,413.56,62.88,1232.70,864.00
126,812.79,434.87,26.74,1177.40,865.40
135,814.19,456.14,94.50,1299.10,861.10
144,815.60,477.36,90.03,1285.60,866.20
153,817.01,498.52,138.23,1334.90,863.20
162,818.42,519.64,5803.89,8648.90,868.20
171,819.84,540.70,178.83,1407.90,860.80
180,821.25,561.71,4.29,1091.40,859.90
189,822.67,582.67,1.36,1083.80,863.60
198,824.09,603.57,165.94,1373.00,861.10
207,825.50,624.43,2307.01,4334.80,867.20
216,826.92,645.22,96.31,1235.30,862.30
225,828.34,665.97,0.00,1052.80,860.60
234,829.77,686.66,2.84,1085.40,868.40
243,831.19,707.29,2.55,1095.40,867.00
252,832.61,727.87,282.09,1517.50,867.20
261,834.04,748.39,43.66,1179.80,863.10
270,835.47,768.85,241.90,1646.60,862.50
279,836.89,789.26,14691.57,22714.60,866.80
288,838.32,809.61,928.22,2506.90,863.30
297,839.75,829.90,82.60,1286.50,866.20
306,841.18,850.14,108.02,1317.10,863.90
315,842.61,870.31,0.00,1114.50,865.70
324,844.04,890.43,64.75,1234.30,860.90
333,845.47,910.49,0.53,1143.20,861.90
342,846.90,930.49,10.11,1162.70,862.10
351,848.33,950.43,22.63,1209.40,861.00
360,849.77,970.31,324.83,1718.60,862.30
369,851.20,990.12,1433.65,4413.80,865.90
378,852.63,1009.88,5986.89,17487.60,868.60
387,854.07,1029.58,9670.06,13773.60,863.70
396,855.50,1049.21,189.32,1546.80,860.80
405,856.94,1068.79,33.21,1290.00,862.60
414,858.37,1088.30,49.48,1329.30,860.10
423,859.81,1107.75,1.67,1243.40,863.90
432,861.25,1127.14,17.37,1302.00,865.70
441,862.68,1146.46,456.49,2217.30,862.10
450,864.12,1165.73,742.11,2789.60,862.80
459,865.55,1184.93,1161.09,3263.50,859.40
468,866.99,1204.06,1942.90,5672.50,863.50
477,868.43,1223.14,233.18,2058.30,863.60
486,869.86,1242.15,68.38,1464.40,861.70
495,871.30,1261.10,0.00,1362.50,861.70
504,872.73,1279.98,26.40,1432.00,862.60
513,874.17,1298.80,70.19,1527.10,862.30
522,875.60,1317.55,237.82,1796.20,863.10
531,877.04,1336.24,326.61,1913.30,860.30
540,878.47,1354.87,273.58,1853.40,859.20
549,879.91,1373.43,1259.68,3641.10,865.00
558,881.34,1391.93,604.99,2514.50,858.10
567,882.78,1410.36,371.50,2009.80,861.60
576,884.21,1428.73,656.55,2442.90,865.60
585,885.64,1447.03,792.51,2631.20,859.50
594,887.08,1465.26,538.65,2252.40,862.60
603,888.51,1483.43,386.87,2033.20,863.00
612,889.94,1501.54,415.56,2052.30,860.70
621,891.37,1519.58,253.18,1803.60,857.00
630,892.80,1537.56,227.07,1767.10,859.60
639,894.23,1555.46,278.15,1843.50,859.50
648,895.66,1573.31,752.70,2650.10,862.00
657,897.09,1591.09,2058.66,4601.30,860.30
666,898.52,1608.80,3745.83,6426.40,862.00
675,899.95,1626.44,764.32,2486.60,859.10
684,901.37,1644.02,138.26,1638.10,861.60
693,902.80,1661.54,19.36,1465.40,865.10
702,904.22,1678.99,48.41,1442.30,855.20
711,905.64,1696.37,9.20,1358.90,861.30
720,907.07,1713.68,0.00,1291.10,858.70
729,908.49,1730.93,2.11,1267.80,859.80
738,909.91,1748.12,0.00,1230.90,860.80
747,911.33,1765.23,0.00,1203.30,862.70
756,912.75,1782.29,23.11,1222.60,858.80
765,914.16,1799.27,17.35,1201.00,861.70
774,915.58,1816.19,9.25,1168.80,859.10
783,916.99,1833.04,7.61,1153.40,860.80
792,918.41,1849.83,10.21,1142.00,860.30
801,919.82,1866.55,12.78,1129.60,859.60
810,921.23,1883.20,17.38,1124.00,862.70
819,922.64,1899.79,25.41,1110.70,856.40
828,924.05,1916.31,32.08,1113.30,861.00
837,925.46,1932.77,59.56,1129.00,863.50
846,926.86,1949.16,44.03,1098.10,863.30
855,928.27,1965.48,46.22,1081.40,859.10
864,929.67,1981.74,20.96,1044.80,860.30
873,931.07,1997.93,41.49,1052.10,861.30
882,932.47,2014.06,13.09,1006.60,859.30
891,933.87,2030.12,16.98,998.30,860.90
900,935.27,2046.11,1.90,975.60,864.90
909,936.66,2062.04,9.47,969.40,862.40
918,938.06,2077.91,0.07,948.80,861.10
927,939.45,2093.70,0.00,938.50,864.00
936,940.84,2109.44,0.88,933.80,860.50
945,942.23,2125.10,15.95,944.80,863.70
954,943.62,2140.70,3.78,930.40,862.80
963,945.00,2156.24,1.84,924.00,860.40
972,946.39,2171.71,1.90,922.40,860.30
981,947.77,2187.12,2.04,915.70,858.70
990,949.15,2202.46,25.72,938.50,860.60
999,950.53,2217.73,6.46,921.90,859.90
1008,951.90,2232.94,12.78,925.10,859.70
1017,953.28,2248.09,12.67,927.50,861.40
1026,954.65,2263.17,15.31,926.40,862.30
1035,956.02,2278.19,3.26,914.90,860.40
1044,957.39,2293.14,0.01,912.90,861.40
1053,958.75,2308.03,24.73,934.50,860.20
1062,960.12,2322.85,10.84,923.30,859.20
1071,961.48,2337.61,11.55,920.90,859.40
1080,962.84,2352.31,20.14,930.60,861.00
1089,964.20,2366.94,24.60,934.80,860.70
1098,965.56,2381.51,25.03,939.70,863.60
1107,966.91,2396.01,43.38,947.40,860.40
1116,968.26,2410.45,69.21,963.70,861.90
1125,969.61,2424.83,69.43,969.10,860.80
1134,970.96,2439.14,69.84,965.90,860.90
1143,972.30,2453.39,15.78,927.40,861.80
1152,973.65,2467.58,55.96,946.80,861.80
1161,974.99,2481.70,25.10,932.70,861.50
1170,976.33,2495.76,12.52,926.00,861.90
1179,977.66,2509.76,24.02,928.10,861.80
1188,979.00,2523.70,43.14,940.50,862.20
1197,980.33,2537.57,85.70,966.10,860.60
1206,981.66,2551.38,241.36,1041.00,863.50
1215,982.98,2565.13,134.59,990.20,859.20
1224,984.31,2578.82,214.52,1031.00,860.10
1233,985.63,2592.44,201.09,1022.20,858.80
1242,986.95,2606.01,317.49,1059.00,866.80
1251,988.27,2619.51,60.87,950.90,864.30
1260,989.58,2632.95,0.00,917.20,867.80
1269,990.89,2646.33,6.81,923.70,869.00
1278,992.20,2659.65,91.20,949.50,864.20
1287,993.51,2672.91,0.85,917.90,863.90
1296,994.81,2686.10,0.00,912.30,864.90
1305,996.12,2699.24,10.65,932.40,866.00
1314,997.41,2712.32,34.06,949.20,865.00
1323,998.71,2725.33,194.11,1040.80,863.40
1332,1000.01,2738.29,1064.36,1311.30,868.30
1341,1001.30,2751.18,166.84,1029.80,868.10
1350,1002.59,2764.02,67.07,986.80,866.00
1359,1003.87,2776.79,98.12,992.80,863.00
1368,1005.15,2789.51,0.00,973.10,866.00
1377,1006.43,2802.17,0.00,980.00,863.70
1386,1007.71,2814.77,0.00,1002.90,863.70
1395,1008.99,2827.30,0.00,1046.80,859.50
1404,1010.26,2839.78,101.52,1151.40,865.10
1413,1011.53,2852.21,1093.98,1483.50,862.10
1422,1012.80,2864.57,2337.72,1849.80,870.80
1431,1014.06,2876.87,2165.08,1817.10,860.60
1440,1015.32,2889.12,1341.33,1653.20,865.20
1449,1016.58,2901.31,2345.69,1958.30,864.30
1458,1017.83,2913.44,8240.01,3331.60,860.90
1467,1019.09,2925.51,8401.80,3340.20,864.20
1476,1020.33,2937.53,2905.63,2107.50,868.20
1485,1021.58,2949.49,1323.81,1720.30,865.80
1494,1022.82,2961.39,356.19,1527.50,865.60
1503,1024.07,2973.23,248.62,1534.60,870.00
1512,1025.30,2985.02,1674.39,1702.40,861.30
1521,1026.54,2996.75,901.87,1545.90,863.80
1530,1027.77,3008.43,1421.51,1593.40,867.20
1539,1029.00,3020.05,2295.03,1707.80,862.30
1548,1030.22,3031.61,5961.32,2237.60,860.30
1557,1031.45,3043.12,8578.67,2738.90,866.40
1566,1032.67,3054.57,22348.89,4356.90,863.50
1575,1033.88,3065.97,13119.30,3150.50,858.10
1584,1035.10,3077.31,4885.32,1889.80,865.80
1593,1036.31,3088.60,1923.07,1382.40,867.60
1602,1037.52,3099.83,792.64,1186.30,863.20
1611,1038.72,3111.00,222.77,1089.00,867.00
1620,1039.92,3122.13,0.26,1015.80,863.50
1629,1041.12,3133.20,0.00,978.60,868.20
1638,1042.32,3144.21,0.00,955.50,863.00
1647,1043.51,3155.17,7.03,952.30,866.20
1656,1044.70,3166.08,354.13,976.80,869.00
1665,1045.88,3176.93,37.05,944.80,867.60
1674,1047.07,3187.73,9.00,928.30,864.00
1683,1048.24,3198.48,147.49,942.40,868.40
1692,1049.42,3209.17,308.39,946.40,866.40
1701,1050.59,3219.81,121.80,926.60,865.20
1710,1051.76,3230.40,99.63,921.60,866.20
1719,1052.93,3240.94,39.15,907.40,861.70
1728,1054.10,3251.42,126.90,913.20,863.70
1737,1055.26,3261.86,88.57,912.10,868.40
1746,1056.41,3272.24,124.13,911.40,867.90
1755,1057.57,3282.57,164.34,913.10,870.60
1764,1058.72,3292.85,155.72,906.60,866.90
1773,1059.87,3303.07,184.80,905.50,866.20
1782,1061.01,3313.25,247.00,901.50,863.10
1791,1062.15,3323.38,139.20,897.80,865.60
1800,1063.29,3333.45,167.78,896.60,866.10
1809,1064.42,3343.48,147.77,894.30,866.20
1818,1065.55,3353.45,141.03,891.50,864.80
1827,1066.68,3363.38,182.75,890.80,864.90
1836,1067.81,3373.25,115.25,884.90,862.30
1845,1068.93,3383.08,195.10,885.00,862.00
1854,1070.05,3392.85,130.45,892.40,872.90
1863,1071.16,3402.58,82.80,882.00,865.60
1872,1072.27,3412.26,266.73,884.60,864.20
1881,1073.38,3421.89,168.71,879.70,863.10
1890,1074.49,3431.47,227.54,880.40,862.40
1899,1075.59,3441.00,293.98,880.00,863.10
1908,1076.69,3450.49,142.15,882.40,868.80
1917,1077.78,3459.93,260.47,876.10,861.10
1926,1078.87,3469.32,190.05,878.00,866.40
1935,1079.96,3478.66,235.27,876.00,863.70
1944,1081.05,3487.95,287.17,879.10,867.30
1953,1082.13,3497.20,202.77,878.40,867.70
1962,1083.21,3506.40,365.55,874.90,862.70
1971,1084.28,3515.56,87.19,876.20,870.30
1980,1085.36,3524.67,121.59,871.80,865.80
1989,1086.42,3533.73,371.18,872.70,862.20
1998,1087.49,3542.74,293.64,873.10,865.20
2007,1088.55,3551.71,0.00,870.00,867.80
2016,1089.61,3560.64,267.80,867.50,860.70
2025,1090.67,3569.52,209.18,870.60,865.20
2034,1091.72,3578.35,384.50,866.60,858.00
2043,1092.77,3587.14,145.33,865.50,861.50
2047,1093.23,3591.03,32.94,862.70,858.30